[Header]																													
TITLE	IQM_IQMPPMS_20200218_1_TB_0-DRHCtry2.dat																												
BYAPP	HeatCapacity	3.8.14	1.7																										
INFO	2.34	MASS:Sample Mass (mg)																											
INFO	0	MASSERR:Sample Mass Error (mg)																											
INFO	0	MOLWGHT:Formula Weight (g/mole)																											
INFO	0	ATOMS:Atoms per Formula Unit																											
INFO	PPMS Heat Capacity Option 3.8.14 Build 19	APPNAME																											
DATATYPE	TIME	1																											
DATATYPE	COMMENT	2																											
STARTUPAXIS	 X	8	 LINEAR	 AUTO																									
STARTUPAXIS	 Y1	10	 LINEAR	 AUTO																									
[Data]																													
Time Stamp (Seconds)	Comment ()	System Status (Code)	Puck Temp (Kelvin)	System Temp (Kelvin)	Field (Oersted)	Pressure (Torr)	Sample Temp (Kelvin)	Temp Rise (Kelvin)	Samp HC (J/g-K)	Samp HC Err (J/g-K)	Addenda HC (?J/K)	Addenda HC Err (?J/K)	Total HC (?J/K)	Total HC Err (?J/K)	Fit Deviation (ChiSquare)	Time Const tau1 (seconds)	Time Const tau2 (seconds)	Sample Coupling (Percent)	Debye Temp (Kelvin)	Debye Temp Err (Kelvin)	Cal Correction (Factor)	Therm Resist (Ohms)	Htr Resist (Ohms)	Puck Resist (Ohms)	Wire Cond (W/K)	Meas Time (seconds)	Temp Squared (K^2)	Samp HC/Temp (J/g-K/K)	Addenda Offset HC (?J/K)
4306685.22	CALFILE: DRPuck50_1.cal - Addenda #16 measured on 2/14/2020 from 0.087938 to 3.6029 K																												
4306685.52		4881	0	0.1099	90000.148	9.20E-06	0.098536872	0.001625306	0.000187331	1.98E-06	0.00099092	0.0001217	0.43934631	0.004642	0.44493835	116.70763	0.005471613	97.871736	0	0	1				3.85E-09	295.3303	0.009709515	0.00190113	0
4307918.5		4881	0	0.11	90000.148	9.40E-06	0.098668444	0.001794883	0.0001802	1.50E-06	0.000993408	0.0001207	0.4226625	0.003499	0.69958075	113.4767	0.005954854	97.710078	0	0	1				3.81E-09	350.1229	0.009735462	0.001826323	0
4309962.64		4881	0	0.1099	90000.148	9.30E-06	0.098529034	0.001810773	0.000174525	1.74E-06	0.00099044	0.0001219	0.4093786	0.004065	0.93568474	114.21282	0.008294036	96.895673	0	0	1				3.70E-09	340.4301	0.009707971	0.001771304	0
4312026.42		4881	0	0.12	90000.148	9.20E-06	0.10712235	0.001908746	0.000155629	1.83E-06	0.001196782	-1.66E-06	0.36536948	0.004271	1.3904979	80.717455	0.005595938	97.830032	0	0	1				4.63E-09	250.8271	0.011475197	0.001452819	0
4312728.3		4881	0	0.12	90000.148	9.30E-06	0.10706602	0.001863161	0.000156764	1.72E-06	0.001196208	-1.34E-06	0.3680244	0.004029	0.73728221	82.447016	0.008039184	96.895106	0	0	1				4.61E-09	242.1524	0.011463133	0.001464182	0
4313649.19		4881	0	0.12	90000.148	9.40E-06	0.10705817	0.001892644	0.000158657	1.69E-06	0.001196043	-1.25E-06	0.37245279	0.003957	0.86264694	82.033359	0.003532623	98.63631	0	0	1				4.60E-09	247.341	0.011461452	0.001481968	0
4316416.75		4881	0	0.1319	90000.148	9.30E-06	0.11743179	0.00214368	0.000131554	1.60E-06	0.001209723	-2.66E-07	0.30904664	0.00374	0.85492272	59.8557	0.00615671	97.289579	0	0	1				5.31E-09	182.4907	0.013790225	0.001120261	0
4316941.91		4881	0	0.132	90000.148	9.30E-06	0.11750257	0.002152574	0.000128968	1.61E-06	0.001210227	-5.16E-08	0.30299505	0.003759	1.3897132	57.724042	0.004927183	97.807052	0	0	1				5.37E-09	179.5671	0.013806853	0.001097575	0
4317450.09		4881	0	0.132	90000.148	9.30E-06	0.117481	0.002165866	0.000129075	1.69E-06	0.001210215	-5.66E-08	0.30324654	0.003949	1.0315736	60.597631	0.006696939	97.139109	0	0	1				5.15E-09	173.1721	0.013801786	0.001098691	0
4318539.2		4881	0	0.144	90000.148	9.30E-06	0.12813872	0.002332313	0.000107557	9.00E-07	0.001366131	7.19E-05	0.25304872	0.002107	0.87601122	41.198485	0.00439014	97.975323	0	0	1				6.27E-09	127.9175	0.016419531	0.000839377	0
4318863.33		4881	0	0.1439	90000.148	9.30E-06	0.12808507	0.002312398	0.000107999	9.21E-07	0.001365485	7.16E-05	0.25408287	0.002154	0.93575546	41.789516	0.004393226	97.993861	0	0	1				6.20E-09	123.5955	0.016405785	0.000843181	0
4319191.38		4881	0	0.144	90000.148	9.40E-06	0.12815481	0.002329481	0.000108409	9.85E-07	0.001366516	7.21E-05	0.25504426	0.002305	1.4309068	42.328715	0.005059782	97.705429	0	0	1				6.17E-09	125.3685	0.016423655	0.000845925	0
4320028.02		4881	0	0.158	90000.148	9.40E-06	0.14029009	0.002568735	8.99E-05	9.29E-07	0.001513049	0.0001402	0.21199076	0.002174	1.2592451	30.248858	0.005751723	97.242788	0	0	1				7.20E-09	89.78071	0.019681309	0.000641155	0
4320274.41		4881	0	0.158	90000.148	9.30E-06	0.14032744	0.002589054	9.04E-05	9.22E-07	0.001513371	0.0001402	0.21310394	0.002158	1.1229122	29.976735	0.004195623	97.975158	0	0	1				7.25E-09	90.74657	0.01969179	0.000644374	0
4320519.41		4881	0	0.158	90000.148	9.30E-06	0.14039511	0.002546345	9.18E-05	1.01E-06	0.001514081	0.0001403	0.21633922	0.002352	0.92156501	30.306419	0.004143542	97.993517	0	0	1				7.28E-09	89.93021	0.019710786	0.000653909	0
4321181.61		4881	0	0.1731	90000.148	9.40E-06	0.15364268	0.002773198	7.74E-05	1.14E-06	0.00160479	4.33E-05	0.18265365	0.002656	1.876819	21.793566	0.004725201	97.447409	0	0	1				8.60E-09	63.04017	0.023606072	0.00050358	0
4321370.64		4881	0	0.173	90000.148	9.40E-06	0.15370546	0.002872013	7.65E-05	1.02E-06	0.00160532	4.30E-05	0.18068822	0.002387	1.0446919	21.952647	0.004860807	97.421181	0	0	1				8.44E-09	65.3807	0.023625367	0.000497908	0
4321560.27		4881	0	0.173	90000.148	9.30E-06	0.1536786	0.002967447	7.49E-05	9.28E-07	0.001605222	4.31E-05	0.1767671	0.002171	1.5731504	22.576235	0.006596313	96.644299	0	0	1				8.10E-09	65.85794	0.023617111	0.000487091	0
4322131.64		4881	0	0.1901	90000.148	9.30E-06	0.16870461	0.003153842	6.44E-05	1.01E-06	0.001859722	0.000165	0.15253208	0.002369	1.1893749	15.341026	0.003840509	97.878487	0	0	1				1.02E-08	46.43392	0.028461246	0.000381672	0
4322272.69		4881	0	0.19	90000.148	9.40E-06	0.1687114	0.003224843	6.31E-05	9.67E-07	0.001859927	0.0001651	0.14946437	0.002262	1.1016628	15.367081	0.004397787	97.617185	0	0	1				9.96E-09	46.02308	0.028463537	0.000373886	0
4322414.36		4881	0	0.1901	90000.148	9.30E-06	0.16871883	0.003098733	6.61E-05	1.06E-06	0.001859849	0.0001651	0.15652858	0.002477	1.060515	15.289622	0.002340242	98.679695	0	0	1				1.04E-08	46.10124	0.028466044	0.000391763	0
4322870.86		4881	0	0.2081	90000.148	9.30E-06	0.18443456	0.003516552	5.47E-05	1.06E-06	0.002008992	8.39E-05	0.13010784	0.002471	1.2176521	11.256763	0.003230748	98.077364	0	0	1				1.18E-08	33.68209	0.034016108	0.000296816	0
4322984.27		4881	0	0.2081	90000.148	9.20E-06	0.18440476	0.003531524	5.42E-05	1.12E-06	0.002008729	8.41E-05	0.1288708	0.00262	0.95424317	11.267453	0.004818727	97.135659	0	0	1				1.18E-08	33.77029	0.034005114	0.000293998	0
4323096.88		4881	0	0.208	90000.148	9.40E-06	0.18445344	0.003437253	5.47E-05	1.14E-06	0.002008896	8.40E-05	0.12989762	0.002655	1.1842821	10.568288	0.001787692	98.877189	0	0	1				1.24E-08	33.80236	0.034023071	0.000296299	0
4323484.67		4881	0	0.227	90000.148	9.30E-06	0.20126859	0.003728838	4.60E-05	1.31E-06	0.002342329	1.08E-05	0.10999528	0.003055	1.6554134	7.9928414	0.004021275	97.529955	0	0	1				1.41E-08	23.14304	0.040509046	0.000228578	0
4323575.09		4881	0	0.2271	90000.148	9.40E-06	0.20122091	0.003899654	4.61E-05	1.05E-06	0.002341754	1.09E-05	0.11010512	0.002466	1.045121	8.499372	0.0051473	97.008374	0	0	1				1.33E-08	23.97852	0.040489854	0.000228866	0
4323669.94		4881	0	0.2271	90000.148	9.30E-06	0.20128972	0.00388729	4.71E-05	1.05E-06	0.002342548	1.08E-05	0.11248357	0.002466	1.1830998	8.2697914	0.003710212	97.753448	0	0	1				1.39E-08	25.49812	0.040517553	0.000233836	0
4324030.86		4881	0	0.2491	90000.148	9.30E-06	0.22067483	0.004209999	3.95E-05	1.27E-06	0.002473515	-2.38E-05	0.095016384	0.002974	1.0454977	5.8773824	0.00290257	98.016829	0	0	1				1.65E-08	17.68158	0.04869738	0.000179215	0
4324102.13		4881	0	0.2491	90000.148	9.40E-06	0.22080081	0.004170148	4.03E-05	1.33E-06	0.002474064	-2.36E-05	0.096679014	0.003104	1.5922021	6.1076358	0.004760179	96.780799	0	0	1				1.63E-08	17.63215	0.048752997	0.00018233	0
4324245.69		4881	0	0.249	90000.148	9.20E-06	0.22085421	0.004169162	4.03E-05	1.18E-06	0.002474054	-2.36E-05	0.096662479	0.002754	1.124556	5.7317953	0.001996166	98.585559	0	0	1				1.71E-08	18.32291	0.048776584	0.000182254	0
4324492.88		4881	0	0.2733	90000.148	9.20E-06	0.24209725	0.004966488	3.58E-05	1.06E-06	0.002977789	0.0002584	0.086655664	0.00248	0.86210903	4.4231064	0.002530666	98.249152	0	0	1				1.99E-08	17.19539	0.058611081	0.000147708	0
4324556.28		4881	0	0.2729	90000.148	9.40E-06	0.24190019	0.00461747	3.50E-05	1.33E-06	0.00297467	0.0002568	0.084910267	0.003101	1.2576735	4.621649	0.005252079	96.534061	0	0	1				1.90E-08	13.26932	0.058515701	0.000144751	0
4324619.69		4881	0	0.2732	90000.148	9.20E-06	0.24187106	0.004709313	3.39E-05	1.13E-06	0.002972563	0.0002556	0.082182349	0.00265	1.1890873	4.286553	0.003511185	97.600756	0	0	1				1.96E-08	13.86495	0.058501608	0.000139952	0
4324898.92		4881	0	0.2991	90000.148	9.30E-06	0.26505907	0.004851481	3.00E-05	7.34E-07	0.003580288	0.0003416	0.073821094	0.001717	1.3469048	3.2587195	0.004254496	97.102184	0	0	1				2.33E-08	9.383486	0.070256311	0.000113248	0
4324950.63		4881	0	0.2989	90000.148	9.40E-06	0.26515135	0.004926341	3.02E-05	7.13E-07	0.003582539	0.0003413	0.074300392	0.001669	1.1323711	3.2549334	0.0038997	97.331044	0	0	1				2.34E-08	9.776158	0.070305239	0.000113978	0
4325000.98		4881	0	0.2991	90000.148	9.30E-06	0.26504793	0.004934831	3.00E-05	6.96E-07	0.003580264	0.0003416	0.073754116	0.001628	1.3055636	3.2721769	0.004890789	96.673276	0	0	1				2.32E-08	9.7648	0.070250405	0.000113145	0
4325269.55		4881	0	0.3271	90000.148	9.40E-06	0.28960891	0.005330351	2.62E-05	7.50E-07	0.004297462	0.0004598	0.065570063	0.001754	1.1157221	2.4965052	0.004379413	97.070889	0	0	1				2.70E-08	7.161777	0.083873319	9.04E-05	0
4325315.34		4881	0	0.3271	90000.148	9.40E-06	0.28982646	0.00530686	2.64E-05	8.17E-07	0.004302744	0.0004614	0.065961922	0.001912	1.261268	2.3318487	0.001762065	98.748972	0	0	1				2.86E-08	7.489516	0.083999377	9.09E-05	0
4325361.17		4881	0	0.327	90000.148	9.30E-06	0.28976371	0.005138008	2.68E-05	8.50E-07	0.004300493	0.0004607	0.066953935	0.001988	1.3396004	2.3527666	0.000654728	99.535386	0	0	1				2.86E-08	6.995546	0.083963006	9.24E-05	0
4325578.09		4881	0	0.358	90000.148	9.30E-06	0.31741586	0.006231269	2.34E-05	7.20E-07	0.004683194	0.0005293	0.059348341	0.001686	1.0063729	1.8282213	0.002467623	98.118071	0	0	1				3.30E-08	7.0583	0.10075283	7.36E-05	0
4325616.64		4881	0	0.3582	90000.148	9.20E-06	0.31701877	0.005678242	2.33E-05	9.29E-07	0.004682598	0.0005299	0.059247224	0.002174	0.84272427	1.8247449	0.002337513	98.217771	0	0	1				3.30E-08	5.484664	0.1005009	7.36E-05	0
4325654.2		4881	0	0.3581	90000.148	9.20E-06	0.31697696	0.005683425	2.35E-05	9.77E-07	0.004682595	0.0005299	0.059693045	0.002287	1.3400784	1.9119203	0.004608554	96.582655	0	0	1				3.22E-08	5.474235	0.10047439	7.42E-05	0
4325902.91		4881	0	0.392	90000.148	9.30E-06	0.34762721	0.005783125	2.20E-05	1.04E-06	0.005296846	0.0003561	0.056727827	0.002427	1.0924107	1.4102518	0.001734937	98.532772	0	0	1				4.07E-08	4.055488	0.12084468	6.32E-05	0
4325938.2		4881	0	0.3919	90000.148	9.40E-06	0.34760316	0.006053172	2.11E-05	1.05E-06	0.005297221	0.000356	0.054616784	0.002454	0.79467102	1.4222307	0.0036077	97.047641	0	0	1				3.94E-08	4.230755	0.12082796	6.06E-05	0
4325975.13		4881	0	0.392	90000.148	9.30E-06	0.34772614	0.006014292	2.14E-05	1.10E-06	0.005299916	0.0003553	0.055391944	0.002575	1.3033097	1.3700976	0.000559924	99.526253	0	0	1				4.06E-08	4.266692	0.12091347	6.16E-05	0
4326186.48		4881	0	0.4301	90000.148	9.30E-06	0.38208091	0.006770535	1.95E-05	6.38E-07	0.006586357	0.0003044	0.052313848	0.001463	1.0400537	1.0714415	0	100	0	0	1				4.88E-08	4.110293	0.14598582	5.11E-05	0
4326218.39		4881	0	0.43	90000.148	9.40E-06	0.38164869	0.006590683	1.88E-05	5.59E-07	0.006575537	0.0003032	0.050670519	0.001309	0.70069914	1.1673398	0.005437199	95.780252	0	0	1				4.49E-08	3.214324	0.14565572	4.94E-05	0
4326252.33		4881	0	0.43	90000.148	9.20E-06	0.38183187	0.006646082	1.95E-05	6.12E-07	0.006581125	0.0003038	0.052262112	0.001432	1.1184086	1.1241824	0.002423091	98.020682	0	0	1				4.72E-08	3.502019	0.14579558	5.11E-05	0
4326502.19		4881	0	0.47	90000.148	9.30E-06	0.41798839	0.007727446	1.81E-05	7.96E-07	0.007941539	0.0004964	0.050271452	0.001862	1.1873761	0.95487717	0.004435848	96.452692	0	0	1				5.40E-08	3.372547	0.17471429	4.33E-05	0
4326534.16		4881	0	0.4701	90000.148	9.20E-06	0.41769897	0.007290391	1.79E-05	7.99E-07	0.007932033	0.0004947	0.049819231	0.00187	1.4204583	0.98578516	0.007254036	94.361959	0	0	1				5.27E-08	2.864632	0.17447243	4.29E-05	0
4326567.63		4881	0	0.4702	90000.148	9.40E-06	0.41799423	0.006914144	1.81E-05	1.18E-06	0.007940273	0.0004962	0.050377755	0.002715	1.1424761	0.86571398	0	100	0	0	1				5.82E-08	2.957355	0.17471918	4.34E-05	0
4326773.47		4881	0	0.5149	90000.148	9.30E-06	0.45799668	0.008177003	1.66E-05	6.86E-07	0.0094962	0.000584	0.048414847	0.001605	1.0871983	0.7436052	0.001614741	98.617024	0	0	1				6.57E-08	2.597142	0.20976096	3.63E-05	0
4326802.33		4881	0	0.515	90000.148	9.20E-06	0.45769838	0.007540481	1.71E-05	7.90E-07	0.009482231	0.0005847	0.049451209	0.00185	1.3497521	0.76115567	0.001460264	98.757284	0	0	1				6.55E-08	2.230816	0.20948781	3.73E-05	0
4326832.44		4881	0	0.5151	90000.148	9.30E-06	0.45798514	0.00783095	1.63E-05	7.26E-07	0.0094979	0.0005839	0.04771341	0.001699	0.82669756	0.7826648	0.004710419	96.180836	0	0	1				6.25E-08	2.283467	0.20975038	3.57E-05	0
4327038.17		4881	0	0.5642	90000.148	9.40E-06	0.5019703	0.009091963	1.60E-05	7.20E-07	0.011612982	0.000626	0.048940393	0.001685	1.1549956	0.65887883	0.003219862	97.286706	0	0	1				7.55E-08	2.347994	0.25197418	3.18E-05	0
4327068.34		4881	0	0.5641	90000.148	9.30E-06	0.50183045	0.007814125	1.65E-05	1.39E-06	0.011602188	0.0006251	0.050163162	0.003189	1.1128349	0.60932899	0	100	0	0	1				8.23E-08	1.976637	0.2518338	3.28E-05	0
4327096.83		4881	0	0.564	90000.148	9.40E-06	0.50166776	0.008028074	1.64E-05	7.92E-07	0.011592385	0.0006242	0.050048805	0.001854	1.3517964	0.65583171	0.002294851	98.026437	0	0	1				7.72E-08	1.827987	0.25167055	3.28E-05	0
4327302.92		4881	0	0.618	90000.148	9.30E-06	0.55037729	0.009232839	1.64E-05	8.85E-07	0.014195216	0.0008383	0.052643942	0.00207	1.1661168	0.59049817	0.003812505	96.712559	0	0	1				9.08E-08	1.967495	0.30291516	2.99E-05	0
4327331.78		4881	0	0.6181	90000.148	9.30E-06	0.55020525	0.008998542	1.61E-05	8.92E-07	0.014182722	0.0008374	0.051943182	0.002087	1.2815715	0.5740545	0.000984835	99.13523	0	0	1				9.09E-08	1.771495	0.30272581	2.93E-05	0
4327361.23		4881	0	0.6182	90000.148	9.20E-06	0.55026082	0.008612913	1.60E-05	1.13E-06	0.014189487	0.0008379	0.051685298	0.002509	0.71994728	0.5570028	0	100	0	0	1				9.28E-08	1.722163	0.30278697	2.91E-05	0
4327565.94		4881	0	0.6771	90000.148	9.40E-06	0.60298982	0.009845902	1.63E-05	8.91E-07	0.016853119	0.0008473	0.054925074	0.002086	0.92156533	0.55040875	0.005857506	95.000403	0	0	1				1.02E-07	1.671008	0.36359672	2.70E-05	0
4327596.06		4881	0	0.6772	90000.148	9.30E-06	0.60312163	0.009359391	1.65E-05	1.62E-06	0.016859327	0.0008466	0.055353316	0.003683	1.3699254	0.51370809	0	100	0	0	1				1.08E-07	1.651226	0.3637557	2.73E-05	0
4327622.84		4881	0	0.6771	90000.148	9.30E-06	0.6030467	0.009299309	1.65E-05	1.39E-06	0.016878576	0.0008444	0.055576324	0.003242	1.0351955	0.51674237	0.000768868	99.296518	0	0	1				1.08E-07	1.541124	0.36366532	2.74E-05	0
4327824.36		4881	0	0.7411	90000.148	9.30E-06	0.66118497	0.010571634	1.68E-05	7.77E-07	0.020426727	0.0006834	0.059646239	0.001819	0.72840998	0.50364981	0.003672821	96.774356	0	0	1				1.20E-07	1.550227	0.43716557	2.53E-05	0
4327852.91		4881	0	0.7411	90000.148	9.40E-06	0.66119559	0.009823071	1.80E-05	1.17E-06	0.020420713	0.0006833	0.062457085	0.002646	0.71527297	0.48266319	0	100	0	0	1				1.29E-07	1.510949	0.43717961	2.72E-05	0
4327880		4881	0	0.7412	90000.148	9.20E-06	0.66098181	0.01024182	1.67E-05	7.93E-07	0.020409629	0.000683	0.059550903	0.001856	1.0183634	0.51225015	0.004026245	96.525624	0	0	1				1.18E-07	1.44799	0.43689696	2.53E-05	0
4328081.72		4881	0	0.8112	90000.148	9.30E-06	0.7245133	0.01156654	1.81E-05	9.50E-07	0.026000169	0.0009141	0.068296701	0.002222	0.68963245	0.49534996	0.003032402	97.418499	0	0	1				1.39E-07	1.53675	0.52491952	2.49E-05	0
4328109.81		4881	0	0.8112	90000.148	9.40E-06	0.72442354	0.011139314	1.85E-05	9.75E-07	0.025988834	0.0009134	0.069216019	0.002282	1.0307022	0.49404492	0.003785583	96.754476	0	0	1				1.42E-07	1.48605	0.52478947	2.55E-05	0
4328137.69		4881	0	0.8111	90000.148	9.40E-06	0.7241562	0.011476727	1.76E-05	9.29E-07	0.025974382	0.0009126	0.06725294	0.002174	1.020737	0.51110243	0.006518424	94.685251	0	0	1				1.34E-07	1.482135	0.5244022	2.44E-05	0
4328340.14		4881	0	0.888	90000.148	9.30E-06	0.79407209	0.012312713	2.17E-05	1.16E-06	0.032611622	0.001218	0.083426112	0.002721	0.89248686	0.51380253	0.000991847	99.190915	0	0	1				1.63E-07	1.533307	0.63055049	2.73E-05	0
4328368.66		4881	0	0.8882	90000.148	9.30E-06	0.79419548	0.012317358	2.13E-05	1.20E-06	0.032622514	0.001218	0.082541464	0.002804	1.3487418	0.50306588	0.001648047	98.634359	0	0	1				1.65E-07	1.541408	0.63074647	2.69E-05	0
4328396.38		4881	0	0.888	90000.148	9.30E-06	0.79366852	0.012076636	2.15E-05	1.23E-06	0.032592849	0.001217	0.082929421	0.002887	0.7577797	0.54137719	0.008988455	93.154565	0	0	1				1.57E-07	1.509198	0.62990972	2.71E-05	0
4328600.09		4881	0	0.9732	90000.148	9.30E-06	0.87078643	0.013185074	2.82E-05	1.15E-06	0.040040943	0.001232	0.10602212	0.002694	1.1895319	0.56190565	0.003261623	97.543496	0	0	1				1.91E-07	1.624132	0.758269	3.24E-05	0
4328630.13		4881	0	0.9732	90000.148	9.30E-06	0.87082533	0.013012397	2.83E-05	1.82E-06	0.040056724	0.001231	0.10616359	0.004084	1.3410589	0.5503056	0	100	0	0	1				1.93E-07	1.685717	0.75833676	3.24E-05	0
4328659.61		4881	0	0.9733	90000.148	9.30E-06	0.87077768	0.013212836	2.76E-05	1.16E-06	0.040041257	0.001232	0.10451712	0.002703	1.2829467	0.55498467	0.005216206	96.058454	0	0	1				1.91E-07	1.650917	0.75825377	3.16E-05	0
4328864.41		4881	0	1.0652	90000.148	9.30E-06	0.95447506	0.013208869	4.05E-05	1.42E-06	0.050570804	0.001049	0.14527417	0.003141	0.99618935	0.64629575	0	100	0	0	1				2.25E-07	1.664954	0.91102264	4.24E-05	0
4328893.14		4881	0	1.0652	90000.148	9.30E-06	0.95482501	0.014469977	3.99E-05	8.63E-07	0.050615744	0.001051	0.14399514	0.002018	1.1673654	0.66060015	0.00212458	98.592161	0	0	1				2.19E-07	1.938887	0.91169081	4.18E-05	0
4328921.83		4881	0	1.065	90000.148	9.20E-06	0.95516805	0.014591169	3.97E-05	9.72E-07	0.050660687	0.001052	0.14351556	0.002274	1.4712285	0.6495863	0.001047984	99.294415	0	0	1				2.22E-07	1.9818	0.91234601	4.15E-05	0
4339780.92		4881	0	1.1671	90000.148	9.40E-06	1.0467721	0.013857585	6.16E-05	2.92E-06	0.065598351	0.001679	0.20983421	0.006613	2.1979393	0.80580392	0	100	0	0	1				2.60E-07	1.948759	1.0957318	5.89E-05	0
4339812.2		4881	0	1.1672	90000.148	9.30E-06	1.0476006	0.015504954	6.06E-05	2.27E-06	0.065767553	0.001684	0.20751765	0.005041	1.2532812	0.81477474	0	100	0	0	1				2.55E-07	2.417412	1.0974671	5.78E-05	0
4339844		4881	0	1.1673	90000.148	9.30E-06	1.0483769	0.015474036	6.02E-05	2.51E-06	0.065894336	0.001687	0.20680524	0.005624	1.0311639	0.79641276	0	100	0	0	1				2.60E-07	2.444324	1.0990941	5.74E-05	0
4340685		4881	0	1.2783	90000.148	9.40E-06	1.1478425	0.015333011	9.39E-05	3.03E-06	0.084085511	0.002142	0.30371187	0.007086	1.356074	1.118826	0.004647166	97.922938	0	0	1				2.74E-07	2.389238	1.3175425	8.18E-05	0
4340719.11		4881	0	1.2779	90000.148	9.30E-06	1.1495047	0.017509327	9.58E-05	2.43E-06	0.084322277	0.002149	0.30840453	0.005258	1.0243349	1.0497776	0	100	0	0	1				2.94E-07	3.356478	1.3213609	8.33E-05	0
4340753.22		4881	0	1.2782	90000.148	9.20E-06	1.1489962	0.017038588	9.72E-05	2.75E-06	0.08422418	0.002146	0.31167842	0.00607	1.0180967	1.0717461	0	100	0	0	1				2.91E-07	3.149333	1.3201922	8.46E-05	0
4341425.03		4881	0	1.3992	90000.148	9.30E-06	1.2586284	0.01697347	0.000153242	3.51E-06	0.10705335	0.002878	0.465639	0.008209	0.94605404	1.4617249	0.003536011	98.630047	0	0	1				3.21E-07	3.215238	1.5841456	0.000121753	0
4341556.56		4881	0	1.3992	90000.148	9.20E-06	1.2602174	0.019067106	0.000153515	3.90E-06	0.10736668	0.002887	0.46659161	0.008659	0.85746947	1.3893327	0	100	0	0	1				3.36E-07	4.385175	1.588148	0.000121816	0
4341591.28		4881	0	1.3992	90000.148	9.40E-06	1.259832	0.018802245	0.000152067	3.71E-06	0.10727462	0.002884	0.46311161	0.008176	1.219801	1.3951148	0	100	0	0	1				3.32E-07	4.167998	1.5871766	0.000120704	0
4341810.97		4881	0	1.5323	90000.148	9.30E-06	1.380646	0.018152792	0.000237655	6.21E-06	0.1385095	0.003379	0.69462284	0.01413	0.90191251	1.837326	0	100	0	0	1				3.78E-07	4.185345	1.9061833	0.000172133	0
4341848.94		4881	0	1.5322	90000.148	9.40E-06	1.3819095	0.020890029	0.000238481	5.16E-06	0.13883946	0.003375	0.6968854	0.0116	1.4113009	1.874325	0	100	0	0	1				3.72E-07	5.511978	1.9096738	0.000172574	0
4341888.47		4881	0	1.5323	90000.148	9.30E-06	1.3821187	0.021296554	0.000243263	4.03E-06	0.13885319	0.003374	0.70808759	0.009439	1.0990958	1.916815	0.003067606	98.981722	0	0	1				3.72E-07	5.622975	1.910252	0.000176007	0
4342114.5		4881	0	1.678	90000.148	9.40E-06	1.5163166	0.021262888	0.000364241	3.09E-06	0.18211932	0.002234	1.034444	0.007223	0.88853476	2.4828577	0.002814352	99.216367	0	0	1				4.19E-07	5.750445	2.2992161	0.000240215	0
4342158.23		4881	0	1.6782	90000.148	9.30E-06	1.517372	0.023093733	0.00036579	3.47E-06	0.18249671	0.002235	1.0384448	0.007806	0.81336892	2.4175474	0	100	0	0	1				4.30E-07	7.448573	2.3024179	0.000241068	0
4342203.67		4881	0	1.6783	90000.148	9.40E-06	1.5171286	0.022651797	0.000369032	3.26E-06	0.18240058	0.002234	1.0459357	0.007301	1.0542887	2.419659	0	100	0	0	1				4.32E-07	7.252642	2.3016791	0.000243244	0
4342432.23		4881	0	1.8367	90000.148	9.30E-06	1.6630269	0.022428399	0.000532296	5.19E-06	0.2382495	0.003476	1.4838232	0.01163	1.1965932	3.07366	0	100	0	0	1				4.83E-07	7.258977	2.7656584	0.000320077	0
4342481.5		4881	0	1.837	90000.148	9.20E-06	1.6643835	0.025222837	0.000532106	4.52E-06	0.23868621	0.003483	1.483814	0.009978	1.0646615	3.0930475	0	100	0	0	1				4.80E-07	9.22098	2.7701724	0.000319701	0
4342531.56		4881	0	1.8365	90000.148	9.30E-06	1.664114	0.025297445	0.000531997	4.49E-06	0.23857689	0.003482	1.4834496	0.009915	0.99549773	3.0938703	0	100	0	0	1				4.79E-07	9.279143	2.7692755	0.000319688	0
4342764.73		4881	0	2.0118	90000.148	9.30E-06	1.8254716	0.025317363	0.000742858	6.98E-06	0.31148855	0.004214	2.0497771	0.01577	0.83181243	3.822003	0	100	0	0	1				5.36E-07	9.281611	3.3323464	0.000406941	0
4342817.84		4881	0	2.0123	90000.148	9.20E-06	1.8271818	0.02861637	0.00074754	4.74E-06	0.31206627	0.004222	2.0613095	0.01108	1.1367192	3.8654371	0.001176652	99.762811	0	0	1				5.34E-07	11.46601	3.3385935	0.000409122	0
4342872.09		4881	0	2.0119	90000.148	9.20E-06	1.8272451	0.028827858	0.000749513	5.03E-06	0.31212723	0.004223	2.0659881	0.01176	1.3260115	3.9124387	0.002221238	99.556461	0	0	1				5.30E-07	11.59631	3.3388245	0.000410188	0
4343131.28		4881	0	2.2029	90000.148	9.30E-06	2.0033471	0.029314563	0.001007237	7.79E-06	0.41411333	0.006433	2.7710478	0.01823	1.0992427	4.7176423	0.00317575	99.46914	0	0	1				5.90E-07	11.73732	4.0133995	0.000502777	0
4343192.58		4881	0	2.2036	90000.148	9.40E-06	2.004652	0.031414639	0.001015916	7.14E-06	0.41484943	0.006437	2.7920934	0.01541	1.1622318	4.7247072	0	100	0	0	1				5.91E-07	14.15293	4.0186297	0.000506779	0
4343254		4881	0	2.2031	90000.148	9.30E-06	2.004901	0.032272005	0.001009157	6.37E-06	0.41476161	0.006436	2.7761893	0.01491	0.87815992	4.7109502	0.000843234	99.859059	0	0	1				5.90E-07	14.17412	4.019628	0.000503345	0
4343501.86		4881	0	2.413	90000.148	9.40E-06	2.2034245	0.032279922	0.001324838	5.65E-06	0.55490317	0.003463	3.6550241	0.01277	0.60796456	5.5156175	0	100	0	0	1				6.63E-07	14.13285	4.8550794	0.000601263	0
4343568.69		4881	0	2.4132	90000.148	9.30E-06	2.2028473	0.034712687	0.001325071	5.27E-06	0.55427919	0.003472	3.6549449	0.01184	2.0275481	5.5019627	0	100	0	0	1				6.64E-07	16.54685	4.8525363	0.000601526	0
4343635.97		4881	0	2.4129	90000.148	9.40E-06	2.2019504	0.034662518	0.001324792	5.35E-06	0.55358636	0.003483	3.6536003	0.01203	1.3690624	5.5184463	0	100	0	0	1				6.62E-07	16.50589	4.8485854	0.000601645	0
4344235.55		4881	0	2.4001	90000.125	9.30E-06	2.1927873	0.034834494	0.001291213	4.87E-06	0.54647981	0.003605	3.5679178	0.0108	0.86582996	5.4425868	0	100	0	0	1				6.56E-07	16.47407	4.8083161	0.000588845	0
4344301.77		4881	0	2.3997	90000.125	9.20E-06	2.1930057	0.034753472	0.001302414	4.95E-06	0.54667248	0.003601	3.5943218	0.01101	1.3521313	5.5089488	0	100	0	0	1				6.52E-07	16.32776	4.809274	0.000593895	0
4344367.66		4881	0	2.4006	90000.125	9.40E-06	2.1906931	0.034932339	0.001299758	4.84E-06	0.54489072	0.003635	3.5863245	0.01072	1.6285877	5.474201	0	100	0	0	1				6.55E-07	16.52685	4.7991364	0.000593309	0
4344595.81		4881	0	2.4409	90000.125	9.40E-06	2.2288077	0.034745764	0.001375225	5.99E-06	0.57484175	0.003255	3.7928676	0.01362	1.0606363	5.6563199	0	100	0	0	1				6.71E-07	16.4226	4.9675835	0.000617023	0
4344662.27		4881	0	2.441	90000.125	9.30E-06	2.2301433	0.03642617	0.0013605	3.97E-06	0.57565317	0.003251	3.7592227	0.009291	0.77222178	5.6725887	0.004348712	99.40731	0	0	1				6.66E-07	16.96896	4.9735393	0.00061005	0
4344728.23		4881	0	2.4408	90000.125	9.30E-06	2.2310046	0.036571634	0.001362402	4.52E-06	0.57639288	0.003246	3.7644143	0.01057	1.6305687	5.739599	0.005622129	99.242087	0	0	1				6.59E-07	17.01777	4.9773816	0.000610668	0
4344954.75		4881	0	2.4828	90000.125	9.30E-06	2.2701963	0.035747287	0.001430834	6.40E-06	0.60881565	0.003179	3.9569673	0.01464	1.1946702	5.7989066	0	100	0	0	1				6.82E-07	17.2188	5.1537914	0.000630269	0
4345022.63		4881	0	2.4829	90000.125	9.20E-06	2.2686892	0.037039172	0.001428437	4.67E-06	0.60708663	0.003177	3.94963	0.01093	1.0446747	5.8370403	0.003049299	99.597698	0	0	1				6.79E-07	17.39672	5.1469506	0.000629631	0
4345093.42		4881	0	2.4831	90000.125	9.20E-06	2.2685433	0.036148226	0.001431399	5.80E-06	0.60730478	0.003178	3.9567786	0.0132	1.2393159	5.814785	0	100	0	0	1				6.80E-07	17.51112	5.1462888	0.000630977	0
4345323.58		4881	0	2.5236	90000.125	9.30E-06	2.3100425	0.036117813	0.001488974	5.63E-06	0.64260382	0.003305	4.126804	0.01275	0.87870819	5.8954003	0	100	0	0	1				7.00E-07	17.44435	5.3362962	0.000644566	0
4345392.58		4881	0	2.5241	90000.125	9.20E-06	2.3060235	0.036366637	0.001500214	5.44E-06	0.63917045	0.003286	4.1496707	0.0123	1.847786	5.9485586	0	100	0	0	1				6.98E-07	17.6862	5.3177445	0.000650563	0
4345461.48		4881	0	2.5241	90000.125	9.30E-06	2.3080678	0.037057029	0.001480584	6.05E-06	0.64097681	0.003296	4.1055437	0.01376	0.68612645	5.9395955	0	100	0	0	1				6.91E-07	17.84568	5.3271771	0.000641482	0
4345692.88		4881	0	2.5659	90000.125	9.30E-06	2.3474539	0.036921209	0.001551795	6.26E-06	0.67570804	0.003543	4.3069089	0.0142	1.1631321	6.0907096	0	100	0	0	1				7.07E-07	17.81879	5.5105398	0.000661055	0
4345763.58		4881	0	2.5657	90000.125	9.40E-06	2.346051	0.037298248	0.001563942	5.91E-06	0.67450087	0.003533	4.3341253	0.01337	1.0464433	6.1354243	0	100	0	0	1				7.06E-07	18.27213	5.5039554	0.000666627	0
4345833.78		4881	0	2.5662	90000.125	9.20E-06	2.3478443	0.038545822	0.001550709	4.69E-06	0.67556283	0.003542	4.3042213	0.01098	1.0257867	6.1455814	0.002846286	99.64946	0	0	1				7.02E-07	18.40627	5.5123728	0.000660482	0
4346064.45		4881	0	2.6068	90000.125	9.30E-06	2.3861672	0.038707622	0.001609344	4.82E-06	0.7105182	0.003844	4.4763839	0.01129	0.41716548	6.2783716	0.002764239	99.669827	0	0	1				7.15E-07	18.43674	5.6937939	0.000674447	0
4346136.67		4881	0	2.6064	90000.125	9.30E-06	2.3848197	0.038127368	0.001623909	5.88E-06	0.70970758	0.003836	4.5096547	0.01322	1.4986943	6.2879762	0	100	0	0	1				7.17E-07	18.83511	5.6873649	0.000680936	0
4346209.31		4881	0	2.6069	90000.125	9.20E-06	2.3835019	0.038099949	0.001620452	5.96E-06	0.7084767	0.003826	4.5003331	0.01342	1.9195307	6.2642485	0	100	0	0	1				7.18E-07	18.86393	5.6810814	0.000679862	0
4346441.67		4881	0	2.6481	90000.125	9.20E-06	2.4246756	0.038502431	0.001670095	6.71E-06	0.74720793	0.004151	4.6552296	0.01513	1.0263312	6.3873593	0	100	0	0	1				7.29E-07	18.79275	5.8790516	0.000688791	0
4346513.7		4881	0	2.648	90000.125	9.20E-06	2.4251845	0.039751971	0.001683124	5.25E-06	0.74732754	0.004152	4.6858376	0.01229	0.985428	6.4672035	0.001976173	99.771834	0	0	1				7.26E-07	19.16208	5.8815197	0.000694019	0
4346586.8		4881	0	2.6485	90000.125	9.30E-06	2.4231155	0.039961279	0.001682214	5.07E-06	0.74516149	0.004135	4.681542	0.01186	0.99494099	6.442005	0.00240716	99.720476	0	0	1				7.28E-07	19.40161	5.8714889	0.000694236	0
4347866		4881	0	2.6897	90000.125	9.40E-06	2.4631995	0.040248423	0.001727129	5.51E-06	0.78421293	0.004403	4.8256935	0.0129	0.85789464	6.5884904	0.003681549	99.588743	0	0	1				7.35E-07	19.32601	6.0673517	0.000701173	0
4347940.56		4881	0	2.6901	90000.125	9.40E-06	2.4644353	0.040622461	0.001742093	5.82E-06	0.78523254	0.004409	4.8617303	0.01361	1.5216591	6.5874096	0.002645854	99.703057	0	0	1				7.40E-07	19.76547	6.0734412	0.000706893	0
4348202.52		4881	0	2.6897	90000.125	9.30E-06	2.4618127	0.040688816	0.001743418	5.52E-06	0.78267438	0.004393	4.862273	0.01291	1.713713	6.6059338	0.001907937	99.785962	0	0	1				7.37E-07	19.76223	6.0605218	0.000708185	0
4348435.89		4881	0	2.7311	90000.125	9.30E-06	2.5045008	0.041126337	0.001784058	5.38E-06	0.8251052	0.004689	4.9998014	0.01258	1.2582717	6.7494618	0.004195999	99.548022	0	0	1				7.43E-07	19.8178	6.2725244	0.000712341	0
4348509.97		4881	0	2.7309	90000.125	9.20E-06	2.4977724	0.041403698	0.001798375	5.47E-06	0.81837545	0.00464	5.0265728	0.01279	0.95205047	6.7452233	0.004160538	99.546638	0	0	1				7.48E-07	20.24839	6.2388672	0.000719992	0
4348583.81		4881	0	2.7318	90000.125	9.20E-06	2.5033957	0.041587087	0.001784388	5.38E-06	0.82399706	0.004681	4.9994656	0.01259	1.3935436	6.7150072	0.003277431	99.644928	0	0	1				7.46E-07	20.23567	6.2669899	0.000712787	0
4348819.34		4881	0	2.772	90000.125	9.30E-06	2.5425614	0.041701659	0.001848761	5.77E-06	0.86396717	0.004981	5.1900667	0.01349	0.84414111	6.8817945	0.002441148	99.744095	0	0	1				7.56E-07	20.14502	6.4646182	0.000727125	0
4348895.03		4881	0	2.7716	90000.125	9.30E-06	2.5402418	0.040905275	0.001865641	7.11E-06	0.86184782	0.004965	5.2274482	0.01588	1.1255107	6.8320558	0	100	0	0	1				7.65E-07	20.64538	6.4528285	0.000734434	0
4351324.67		4881	0	2.7719	90000.125	9.30E-06	2.5373404	0.041856458	0.001863274	5.52E-06	0.85836857	0.004938	5.2184289	0.01291	0.97136208	6.859837	0.001943822	99.793646	0	0	1				7.62E-07	20.49617	6.4380962	0.000734341	0
4352816.55		4881	0	2.8136	90000.125	9.30E-06	2.5790951	0.042357907	0.001926329	6.38E-06	0.90218396	0.005277	5.4097942	0.01492	1.2947076	7.0638024	0.002441618	99.751011	0	0	1				7.67E-07	20.57951	6.6517317	0.000746901	0
4352893.3		4881	0	2.8141	90000.125	9.20E-06	2.5810955	0.041869456	0.001918959	7.70E-06	0.90482108	0.005297	5.3951846	0.01723	1.2300343	6.9796097	0	100	0	0	1				7.73E-07	21.19141	6.6620538	0.000743467	0
4352970.33		4881	0	2.8146	90000.125	9.20E-06	2.5777221	0.04174528	0.001923162	7.18E-06	0.90121661	0.005269	5.4014145	0.01596	0.9702983	6.9713425	0	100	0	0	1				7.75E-07	20.93883	6.644651	0.00074607	0
4353575.41		4881	0	2.8551	90000.125	9.30E-06	2.6159252	0.043058556	0.001974368	6.25E-06	0.94205842	0.005582	5.5620789	0.01463	1.180733	7.1116982	0.002372995	99.762606	0	0	1				7.83E-07	20.91403	6.8430646	0.000754749	0
4353653.19		4881	0	2.8545	90000.125	9.30E-06	2.6186485	0.042299169	0.001972906	8.12E-06	0.94559475	0.005609	5.5621947	0.01815	1.6208786	7.0776274	0	100	0	0	1				7.86E-07	21.33509	6.8573199	0.000753406	0
4353731.41		4881	0	2.8552	90000.125	9.30E-06	2.6180856	0.043210377	0.001985808	6.43E-06	0.94445212	0.005601	5.5912422	0.01504	0.65134164	7.123871	0.002385967	99.761203	0	0	1				7.86E-07	21.23288	6.8543723	0.000758496	0
4353969.52		4881	0	2.8974	90000.125	9.20E-06	2.6621718	0.042832244	0.002036764	8.91E-06	0.9946762	0.005967	5.7607039	0.01998	1.4290032	7.2320815	0	100	0	0	1				7.97E-07	21.37161	7.0871588	0.000765076	0
4354048.47		4881	0	2.8965	90000.125	9.40E-06	2.6565975	0.044311849	0.002043116	6.36E-06	0.98758511	0.005917	5.768476	0.01488	0.96047369	7.3104906	0.003415698	99.670307	0	0	1				7.91E-07	21.69624	7.0575104	0.000769072	0
4354128.27		4881	0	2.8974	90000.125	9.30E-06	2.6575862	0.044621912	0.002039431	6.64E-06	0.98870454	0.005925	5.7609722	0.01555	0.66318142	7.2902993	0.001317116	99.872859	0	0	1				7.91E-07	21.93147	7.0627642	0.0007674	0
4354369.47		4881	0	2.9381	90000.125	9.20E-06	2.6958821	0.043605876	0.002107445	8.68E-06	1.0339865	0.006232	5.9654084	0.01933	1.3607252	7.3856539	0	100	0	0	1				8.08E-07	21.8709	7.2677802	0.000781728	0
4354448.75		4881	0	2.9382	90000.125	9.20E-06	2.700817	0.044088476	0.002097107	2.68E-06	1.039905	0.00627	5.9471342	0	1.2087702	7.3832257	0	100	0	0	1				8.05E-07	22.15696	7.2944124	0.000776471	0
4354528.42		4881	0	2.9377	90000.125	9.40E-06	2.6981762	0.044022733	0.002102323	8.21E-06	1.0367378	0.00625	5.9561742	0.01817	1.3120581	7.362707	0	100	0	0	1				8.09E-07	22.14968	7.2801548	0.000779165	0
4354770.52		4881	0	2.9792	90000.125	9.20E-06	2.7370317	0.044069709	0.002172967	8.25E-06	1.0838095	0.006556	6.1685526	0.01815	0.80554115	7.511727	0	100	0	0	1				8.21E-07	22.08812	7.4913427	0.000793914	0
4354851.02		4881	0	2.979	90000.125	9.40E-06	2.7372532	0.046187565	0.002146275	6.76E-06	1.08336	0.006553	6.1056434	0.01581	1.4266638	7.5792027	0.005736122	99.480497	0	0	1				8.08E-07	22.53518	7.4925553	0.000784098	0
4354931.69		4881	0	2.979	90000.125	9.40E-06	2.7367901	0.044726053	0.00217141	8.99E-06	1.0833077	0.006552	6.164407	0.01999	2.0315226	7.4575781	0	100	0	0	1				8.27E-07	22.73761	7.4900202	0.000793415	0
4355172.75		4881	0	3.0207	90000.125	9.40E-06	2.7754307	0.04464345	0.002235038	9.50E-06	1.1317762	0.006871	6.3617648	0.02113	0.8612046	7.6402414	0	100	0	0	1				8.33E-07	22.37273	7.7030154	0.000805294	0
4355254.47		4881	0	3.0208	90000.125	9.20E-06	2.7748805	0.045312679	0.002237088	9.79E-06	1.1309139	0.006865	6.3656998	0.02186	1.546908	7.6540349	0	100	0	0	1				8.32E-07	22.92072	7.699962	0.000806193	0
4355335.27		4881	0	3.0204	90000.125	9.40E-06	2.7770559	0.046599964	0.002225406	6.42E-06	1.1330033	0.006879	6.3404524	0.01501	0.81738758	7.6544262	0.002708139	99.758726	0	0	1				8.30E-07	22.9621	7.7120394	0.000801354	0
4355578.59		4881	0	3.0622	90000.125	9.30E-06	2.8162733	0.045741692	0.002282737	9.08E-06	1.1841707	0.007207	6.5257747	0.01999	1.2629383	7.7421032	0	100	0	0	1				8.43E-07	22.96328	7.9313951	0.000810552	0
4355660.34		4881	0	3.0626	90000.125	9.30E-06	2.8170692	0.045896599	0.00229307	9.17E-06	1.1852356	0.007213	6.5510198	0.0202	1.2995222	7.7569854	0	100	0	0	1				8.45E-07	23.22631	7.9358788	0.000813991	0
4355741.86		4881	0	3.0619	90000.125	9.30E-06	2.8179375	0.047317815	0.002277632	7.41E-06	1.1856692	0.007216	6.5153272	0.01733	1.2765172	7.7435623	0.001329763	99.884598	0	0	1				8.42E-07	23.27096	7.9407716	0.000808262	0
4355983.44		4881	0	3.1032	90000.125	9.30E-06	2.8563596	0.046071964	0.002340365	9.71E-06	1.2373792	0.007528	6.7138326	0.02144	1.2312986	7.7801564	0	100	0	0	1				8.63E-07	23.23069	8.1587903	0.000819352	0
4356066.2		4881	0	3.1031	90000.125	9.30E-06	2.8546825	0.047819182	0.002346901	6.81E-06	1.2345576	0.007512	6.7263048	0.01593	1.0270248	7.9096622	0.003306868	99.720748	0	0	1				8.52E-07	23.34047	8.1492121	0.000822123	0
4356149.34		4881	0	3.1031	90000.125	9.40E-06	2.8566544	0.046828709	0.00234934	8.77E-06	1.2376658	0.00753	6.7351222	0.01908	1.6851258	7.870897	0	100	0	0	1				8.56E-07	23.72899	8.1604741	0.00082241	0
4356393.41		4881	0	3.1454	90000.125	9.40E-06	2.8949838	0.046874062	0.002396212	1.04E-05	1.2901317	0.007817	6.8972681	0.02291	0.79792394	7.9250158	0	100	0	0	1				8.70E-07	23.61269	8.3809311	0.000827712	0
4356477.41		4881	0	3.1449	90000.125	9.20E-06	2.8965991	0.047367385	0.002394434	9.07E-06	1.2924389	0.007829	6.8954142	0.01974	1.0035619	7.9416104	0	100	0	0	1				8.68E-07	23.77505	8.3902865	0.000826636	0
4356560.64		4881	0	3.1443	90000.125	9.20E-06	2.8914366	0.048581438	0.002408214	8.01E-06	1.2846489	0.007789	6.9198704	0.01874	1.0707732	8.0801613	0.006247451	99.48771	0	0	1				8.59E-07	23.82483	8.3604054	0.000832878	0
4356804.78		4881	0	3.1863	90000.125	9.40E-06	2.9344747	0.048230928	0.002450661	9.19E-06	1.3460923	0.008084	7.0806381	0.01993	1.2868594	8.0791052	0	100	0	0	1				8.76E-07	24.24048	8.6111416	0.000835128	0
4356889.34		4881	0	3.1862	90000.125	9.20E-06	2.9346041	0.04812949	0.002454052	9.53E-06	1.3462289	0.008085	7.0887103	0.02077	0.63813428	8.0304234	0	100	0	0	1				8.83E-07	24.23732	8.611901	0.000836246	0
4356973.23		4881	0	3.1861	90000.125	9.30E-06	2.9301181	0.048138904	0.00244328	9.92E-06	1.3398153	0.008056	7.0570912	0.02178	0.88328474	8.032565	0	100	0	0	1				8.79E-07	24.09127	8.5855921	0.00083385	0
4357219.31		4881	0	3.228	90000.125	9.40E-06	2.9719555	0.048072998	0.002533286	1.05E-05	1.4006787	0.008298	7.3285686	0.02323	0.94088333	8.2027031	0	100	0	0	1				8.93E-07	24.09769	8.8325196	0.000852397	0
4357304.39		4881	0	3.2278	90000.125	9.30E-06	2.9748769	0.050381022	0.002513932	7.78E-06	1.4040685	0.008309	7.2866685	0.0182	1.5670642	8.2738652	0.006183559	99.518861	0	0	1				8.83E-07	24.60811	8.8498925	0.000845054	0
4357391.34		4881	0	3.228	90000.125	9.30E-06	2.9721409	0.049189555	0.002529934	9.37E-06	1.4008191	0.008298	7.320865	0.0203	1.1232339	8.2285853	0	100	0	0	1				8.90E-07	24.8216	8.8336215	0.000851216	0
4357636.77		4881	0	3.2694	90000.125	9.20E-06	3.0114974	0.049352056	0.002579526	9.38E-06	1.4600166	0.008468	7.496107	0.02026	1.2133765	8.3231273	0	100	0	0	1				9.01E-07	24.68576	9.0691167	0.000856559	0
4357724.03		4881	0	3.2686	90000.125	9.30E-06	3.0126	0.049761153	0.002583173	9.73E-06	1.4617596	0.008472	7.5063847	0.02114	1.0828604	8.337944	0	100	0	0	1				9.00E-07	24.96938	9.0757589	0.000857456	0
4357810.42		4881	0	3.2693	90000.125	9.30E-06	3.0142344	0.049749546	0.002582342	9.88E-06	1.4642562	0.008478	7.5069353	0.0215	1.0000868	8.3357897	0	100	0	0	1				9.01E-07	25.01383	9.0856088	0.000856716	0
4358058.67		4881	0	3.3099	90000.125	9.30E-06	3.0507061	0.051076161	0.002646451	8.88E-06	1.5201222	0.008583	7.7128183	0.02078	1.5528898	8.4854429	0.004706585	99.649132	0	0	1				9.11E-07	25.00737	9.3068075	0.000867488	0
4358146.88		4881	0	3.3099	90000.125	9.20E-06	3.0442977	0.050641356	0.002645815	9.82E-06	1.5109915	0.008569	7.7021996	0.02133	1.8279962	8.4177575	0	100	0	0	1				9.15E-07	25.45633	9.2677485	0.000869105	0
4358234.25		4881	0	3.3102	90000.125	9.30E-06	3.0519729	0.05026049	0.002635381	1.08E-05	1.5229726	0.008588	7.6897648	0.02387	1.5483033	8.3791102	0	100	0	0	1				9.18E-07	25.25327	9.3145384	0.000863501	0
4358483.08		4881	0	3.3518	90000.125	9.20E-06	3.090949	0.050419015	0.00269962	1.05E-05	1.585365	0.008667	7.9024749	0.02294	2.0839793	8.5187188	0	100	0	0	1				9.28E-07	25.13733	9.5539658	0.000873395	0
4358570.84		4881	0	3.352	90000.125	9.30E-06	3.0927212	0.052239781	0.002706725	8.49E-06	1.5874228	0.008669	7.9211589	0.01987	0.97080904	8.5903327	0.004139585	99.69902	0	0	1				9.24E-07	25.55616	9.5649246	0.000875192	0
4358659.47		4881	0	3.3522	90000.125	9.20E-06	3.0946761	0.052625131	0.002687707	8.48E-06	1.5903134	0.008672	7.8795474	0.01983	1.3189147	8.5952687	0.005107915	99.630725	0	0	1				9.19E-07	25.771	9.5770202	0.000868494	0
4358907.47		4881	0	3.393	90000.125	9.20E-06	3.1316231	0.052832779	0.002754923	8.76E-06	1.651019	0.008727	8.0975388	0.02051	1.6822934	8.7094765	0.00434331	99.69252	0	0	1				9.32E-07	25.78581	9.807063	0.000879711	0
4358995.39		4881	0	3.3928	90000.125	9.40E-06	3.1328211	0.05340247	0.002728014	8.77E-06	1.6530258	0.008729	8.0365795	0.02052	1.2619798	8.6528557	0.005799489	99.589322	0	0	1				9.31E-07	26.12843	9.8145682	0.000870785	0
4359084.41		4881	0	3.3928	90000.125	9.40E-06	3.1242027	0.051562864	0.00276983	1.02E-05	1.6396836	0.008718	8.1210865	0.02215	1.1966083	8.6542648	0	100	0	0	1				9.38E-07	25.95857	9.7606424	0.000886572	0
4359332.03		4881	0	3.4336	90000.125	9.30E-06	3.1695724	0.053195693	0.002818051	8.64E-06	1.7146635	0.008781	8.308902	0.02022	0.88065344	8.7815196	0.002743501	99.809149	0	0	1				9.47E-07	25.96279	10.046189	0.000889095	0
4359421.58		4881	0	3.4339	90000.125	9.30E-06	3.1693912	0.05389068	0.002805449	8.75E-06	1.7144567	0.008781	8.2792079	0.02046	1.2091856	8.7973755	0.003673328	99.745537	0	0	1				9.43E-07	26.34456	10.045041	0.00088517	0
4359509.75		4881	0	3.4338	90000.125	9.20E-06	3.1715159	0.053991621	0.002799752	8.53E-06	1.7180725	0.008784	8.2694926	0.01995	1.0255306	8.8001347	0.004299701	99.702928	0	0	1				9.41E-07	26.39213	10.058513	0.00088278	0
4359760.27		4881	0	3.4758	90000.125	9.20E-06	3.2105875	0.054315983	0.002852952	8.98E-06	1.7848867	0.008852	8.4607942	0.02101	0.8905871	8.8615744	0.001696055	99.884985	0	0	1				9.55E-07	26.4004	10.307872	0.000888607	0
4359848.11		4881	0	3.4756	90000.125	9.40E-06	3.2111631	0.05332286	0.002841583	1.02E-05	1.7869419	0.008855	8.4362459	0.02212	0.84938163	8.7966567	0	100	0	0	1				9.59E-07	26.58472	10.311568	0.000884908	0
4359937.02		4881	0	3.4753	90000.125	9.40E-06	3.2071274	0.054538454	0.002853046	9.54E-06	1.7790931	0.008845	8.4552218	0.02233	1.5030153	8.9424118	0.006501448	99.561917	0	0	1				9.48E-07	26.38997	10.285666	0.000889596	0
4360191.2		4881	0	3.5174	90000.125	9.30E-06	3.246092	0.053573552	0.0029095	1.19E-05	1.8474116	0.00894	8.6556408	0.02639	0.7950216	8.9297696	0	100	0	0	1				9.69E-07	26.82724	10.537114	0.000896308	0
4360284.14		4881	0	3.5168	90000.125	9.30E-06	3.2511102	0.053792314	0.002896189	1.25E-05	1.8561812	0.008955	8.6332644	0.02773	0.91331414	8.8918289	0	100	0	0	1				9.71E-07	26.78931	10.569718	0.000890831	0
4360478.34		4881	0	3.5168	90000.125	9.20E-06	3.2447394	0.053383723	0.002911195	1.16E-05	1.8449753	0.008936	8.6571725	0.02573	1.0390214	8.8780976	0	100	0	0	1				9.75E-07	26.67549	10.528334	0.000897205	0
4360737		4881	0	3.5585	90000.125	9.20E-06	3.2831719	0.053826066	0.002968687	1.15E-05	1.9131504	0.009068	8.8598776	0.02528	1.1530277	9.0742801	0	100	0	0	1				9.76E-07	26.63429	10.779217	0.000904213	0
4360840.2		4881	0	3.5586	90000.125	9.40E-06	3.2823588	0.054232426	0.002973411	1.22E-05	1.9113457	0.009064	8.8691283	0.02714	1.5220409	8.9946255	0	100	0	0	1				9.86E-07	27.22284	10.773879	0.000905876	0
4360932.3		4881	0	3.5594	90000.125	9.30E-06	3.2857942	0.05597455	0.002931602	8.43E-06	1.9164575	0.009075	8.7764061	0.01973	1.0039083	9.0625639	0.006876059	99.555025	0	0	1				9.71E-07	26.98388	10.796443	0.000892205	0
4361185.3		4881	0	3.6004	90000.125	9.20E-06	3.32533	0.056489307	0.002991428	9.86E-06	1.9874165	0.009234	8.9873582	0.02307	1.2922388	9.2140885	0.004347185	99.725911	0	0	1				9.77E-07	27.18769	11.05782	0.000899588	0
4361464.06		4881	0	3.6502	90000.125	9.20E-06	3.369979	0.05969484	0.003034595	9.03E-06	2.0682846	0.009428	9.1692359	0.02113	0.82969452	9.3141792	0.008141145	99.499135	0	0	1				9.87E-07	30	11.356759	0.000900479	0
4361557.16		4881	0	3.6496	90000.125	9.30E-06	3.3759622	0.056868348	0.003031774	1.26E-05	2.0810699	0.00946	9.1754203	0.02786	1.3916962	9.2875376	0	100	0	0	1				9.88E-07	27.94254	11.397121	0.000898047	0
4361650.63		4881	0	3.6497	90000.125	9.30E-06	3.371551	0.056327464	0.003060354	1.24E-05	2.0727571	0.009439	9.2339853	0.02754	0.81058263	9.1956602	0	100	0	0	1				1.00E-06	27.86261	11.367356	0.000907699	0
4361910.77		4881	0	3.7243	90000.125	9.30E-06	3.4405917	0.057139268	0.003116067	1.32E-05	2.2027959	0.009779	9.4943918	0.02922	1.3662825	9.4067474	0	100	0	0	1				1.01E-06	27.58698	11.837671	0.000905678	0
4362004.47		4881	0	3.7252	90000.125	9.30E-06	3.4396684	0.057812678	0.003132848	1.30E-05	2.200806	0.009774	9.5316693	0.02883	1.5686229	9.4484187	0	100	0	0	1				1.01E-06	28.22024	11.831318	0.000910799	0
4362099.28		4881	0	3.7245	90000.125	9.30E-06	3.4398556	0.057493613	0.003143215	1.24E-05	2.2010079	0.009774	9.5561301	0.02719	1.0451392	9.3453671	0	100	0	0	1				1.02E-06	28.34526	11.832607	0.000913764	0
4363222.08		4881	0	3.8005	90000.125	9.30E-06	3.5074104	0.059626945	0.003222864	1.05E-05	2.3304814	0.01014	9.8719835	0.02453	1.1649531	9.6574558	0.006818304	99.608252	0	0	1				1.02E-06	28.0361	12.301928	0.000918873	0
4363319.08		4881	0	3.7995	90000.125	9.30E-06	3.5127709	0.059339756	0.003220911	1.32E-05	2.3419795	0.01018	9.8789101	0.02918	1.0339025	9.5949471	0	100	0	0	1				1.03E-06	28.97237	12.339559	0.000916914	0
4363415.28		4881	0	3.8002	90000.125	9.30E-06	3.5089113	0.059067344	0.00322675	1.21E-05	2.3344291	0.01015	9.8850238	0.02647	0.91218488	9.6426212	0	100	0	0	1				1.03E-06	28.78484	12.312459	0.000919587	0
4388386.59	CALFILE: DRPuck50_1.cal - Addenda #17 measured on 2/17/2020 from 0.10281 to 3.7677 K																												
4388386.67		4881	0	0.1097	50000.16	9.30E-06	0.10411473	0.002135259	0.000229443	2.68E-06	0.001405427	6.03E-05	0.5383028	0.006261	0.70146711	143.09969	0.004433359	98.795922	0	0	1				3.81E-09	449.2182	0.010839877	0.002203755	0
4389734		4881	0	0.1102	50000.16	9.30E-06	0.10410663	0.002028567	0.000223532	2.75E-06	0.00140505	6.04E-05	0.52447083	0.006442	0.12232864	135.81423	0.009392135	97.341771	0	0	1				3.97E-09	429.2991	0.010838191	0.002147148	0
4390923.41		4881	0	0.1101	50000.16	9.20E-06	0.10401103	0.002054739	0.000222718	2.15E-06	0.001402946	6.12E-05	0.52256375	0.005034	0.71275138	141.11973	0.008615479	97.665968	0	0	1				3.79E-09	407.4427	0.010818294	0.002141295	0
4393128.61		4881	0	0.1231	50000.16	9.20E-06	0.1155805	0.00230106	0.00018947	1.79E-06	0.001691506	-1.06E-05	0.44505053	0.004179	0.62453227	98.891609	0.008133056	97.779288	0	0	1				4.60E-09	284.0812	0.013358853	0.001639288	0
4396387.19		4881	0	0.1232	50000.16	9.30E-06	0.1155644	0.002367951	0.000183153	2.23E-06	0.001690804	-1.05E-05	0.43026849	0.005212	0.53504591	94.522068	0.007260517	97.998121	0	0	1				4.64E-09	296.6748	0.013355131	0.001584855	0
4397202.19		4881	0	0.1232	50000.16	9.30E-06	0.11550167	0.002386329	0.000182473	1.75E-06	0.001690161	-1.04E-05	0.42867659	0.004086	1.2373086	102.19847	0.011950388	96.929622	0	0	1				4.33E-09	283.5662	0.013340637	0.001579829	0
4398779.92		4881	0	0.138	50000.16	9.20E-06	0.12945844	0.00265672	0.00014509	9.71E-07	0.001992798	0.0001019	0.34150281	0.002272	0.92393534	63.620009	0.008171062	97.735999	0	0	1				5.49E-09	188.1736	0.016759488	0.001120744	0
4399328.92		4881	0	0.1381	50000.16	9.40E-06	0.12943485	0.002694981	0.000145473	1.01E-06	0.001992233	0.0001014	0.34239797	0.002359	0.97609006	63.837441	0.008106175	97.755599	0	0	1				5.49E-09	190.86	0.01675338	0.001123906	0
4399877.64		4881	0	0.1379	50000.16	9.30E-06	0.1294392	0.002690002	0.000145383	1.15E-06	0.001992285	0.0001015	0.34218879	0.002696	1.1028873	63.379179	0.008301721	97.684662	0	0	1				5.53E-09	191.5123	0.016754508	0.001123177	0
4400974.2		4881	0	0.154	50000.16	9.40E-06	0.1441548	0.002920838	0.000118921	1.34E-06	0.00236184	0.000259	0.28063642	0.003126	0.94983361	41.840029	0.004473462	98.702522	0	0	1				6.79E-09	125.4975	0.020780606	0.000824952	0
4401347.17		4881	0	0.1539	50000.16	9.30E-06	0.14419333	0.00292324	0.000118669	1.36E-06	0.002362783	0.000259	0.28004773	0.003172	0.49762745	40.378337	0.00210727	99.372372	0	0	1				6.98E-09	125.5201	0.020791717	0.000822984	0
4401710.98		4881	0	0.1538	50000.16	9.30E-06	0.14407463	0.002849108	0.000118027	1.32E-06	0.002360134	0.0002589	0.27854299	0.003082	0.65761822	40.310925	0	100	0	0	1				6.91E-09	121.135	0.020757498	0.000819206	0
4402557.05		4881	0	0.1719	50000.16	9.20E-06	0.16092931	0.003314927	9.71E-05	1.11E-06	0.003600497	5.80E-06	0.2308989	0.002603	0.94152736	28.11841	0.005874988	98.621003	0	0	1				8.32E-09	82.85291	0.025898241	0.000603595	0
4402792.23		4881	0	0.1719	50000.16	9.30E-06	0.16092767	0.003327396	9.86E-05	1.31E-06	0.003600385	5.82E-06	0.23435352	0.003073	0.3253148	28.685619	0.006687403	98.435862	0	0	1				8.30E-09	84.35523	0.025897714	0.000612775	0
4403029.05		4881	0	0.172	50000.16	9.40E-06	0.16095392	0.003291329	9.65E-05	1.25E-06	0.003602974	5.44E-06	0.22944438	0.00293	1.4303325	27.212104	0	100	0	0	1				8.43E-09	86.05686	0.025906165	0.000599634	0
4403665.09		4881	0	0.1921	50000.16	9.30E-06	0.17944301	0.003856275	7.72E-05	1.09E-06	0.003875539	0.000221	0.18462331	0.002551	1.0069603	18.86241	0.007399945	98.056303	0	0	1				9.97E-09	57.71704	0.032199794	0.000430458	0
4403833.88		4881	0	0.192	50000.16	9.40E-06	0.17946772	0.004003525	7.62E-05	9.57E-07	0.00387764	0.0002219	0.18221272	0.002239	0.57910154	19.891386	0.007888412	98.061452	0	0	1				9.33E-09	56.58723	0.032208662	0.000424653	0
4404028.17		4881	0	0.1921	50000.16	9.30E-06	0.17954233	0.003949813	8.06E-05	1.13E-06	0.003879925	0.0002229	0.19243125	0.002645	1.1120226	20.704992	0.009469466	97.633323	0	0	1				9.51E-09	59.67416	0.032235449	0.000448794	0
4404559.86		4881	0	0.2151	50000.16	9.20E-06	0.20077879	0.004370056	6.29E-05	1.09E-06	0.004554054	0.0002512	0.15167694	0.002561	0.68731	12.58591	0.008509834	97.628547	0	0	1				1.23E-08	39.82002	0.040312121	0.000313146	0
4404691.23		4881	0	0.2152	50000.16	9.30E-06	0.20080299	0.004291443	6.50E-05	1.23E-06	0.004554304	0.0002496	0.15676992	0.002874	1.0333187	13.152736	0.005459851	98.508587	0	0	1				1.21E-08	37.75773	0.040321839	0.000323946	0
4404850.39		4881	0	0.2149	50000.16	9.40E-06	0.20081906	0.004361594	6.30E-05	1.02E-06	0.004554164	0.0002505	0.15186401	0.002393	1.1612975	12.283981	0.004011584	98.865982	0	0	1				1.25E-08	39.45821	0.040328293	0.000313481	0
4405319.22		4881	0	0.2399	50000.16	9.30E-06	0.22378136	0.004843894	5.37E-05	1.37E-06	0.005938804	0.0002469	0.13169596	0.00319	1.1101236	9.0688342	0	100	0	0	1				1.45E-08	27.55493	0.050078096	0.000240156	0
4405435.05		4881	0	0.2399	50000.16	9.30E-06	0.2240075	0.005027986	5.06E-05	1.07E-06	0.005960153	0.0002526	0.12435075	0.002509	1.0162736	8.8402755	0.010504432	97.338012	0	0	1				1.44E-08	27.2065	0.050179359	0.00022586	0
4405538.23		4881	0	0.2401	50000.16	9.30E-06	0.22388324	0.004949453	5.17E-05	1.18E-06	0.005947696	0.0002493	0.12690232	0.002768	1.0642932	9.0325442	0.009422292	97.618186	0	0	1				1.44E-08	26.52083	0.050123704	0.000230879	0
4405896.5		4881	0	0.269	50000.16	9.40E-06	0.2505772	0.005064278	4.40E-05	7.30E-07	0.007927845	0.0004003	0.11082958	0.001709	0.65767437	5.6240323	0.004004387	98.919437	0	0	1				1.99E-08	17.89106	0.062788933	0.000175495	0
4405966.11		4881	0	0.269	50000.16	9.30E-06	0.25041631	0.005016666	4.43E-05	6.83E-07	0.007923168	0.0004013	0.11159063	0.001599	0.75886596	5.9037183	0.00712122	98.146133	0	0	1				1.92E-08	16.8721	0.062708326	0.000176915	0
4406037.97		4881	0	0.2692	50000.16	9.40E-06	0.25061986	0.005264768	4.39E-05	6.21E-07	0.007932245	0.0003995	0.11059128	0.001454	0.93939477	6.0855947	0.007214108	98.195814	0	0	1				1.85E-08	17.71115	0.062810312	0.000175052	0
4406352.75		4881	0	0.3004	50000.16	9.30E-06	0.27947307	0.005835133	3.81E-05	7.20E-07	0.009286253	0.0004377	0.098487884	0.001685	1.3269777	4.358696	0.005051292	98.63083	0	0	1				2.29E-08	13.24905	0.078105195	0.000136401	0
4406414.34		4881	0	0.3002	50000.16	9.40E-06	0.27944354	0.005841787	3.71E-05	6.54E-07	0.009283942	0.0004372	0.096085168	0.001529	0.97459719	4.2589163	0.006777834	98.154972	0	0	1				2.29E-08	13.07609	0.078088694	0.000132744	0
4406475.3		4881	0	0.3004	50000.16	9.20E-06	0.279489	0.00550933	3.78E-05	9.49E-07	0.009290391	0.0004384	0.097855642	0.002178	1.1347392	4.0682558	0	100	0	0	1				2.41E-08	12.77675	0.078114099	0.00013542	0
4406774.11		4881	0	0.3359	50000.16	9.20E-06	0.31202792	0.006385861	3.20E-05	8.70E-07	0.011631349	0.001031	0.086602541	0.002036	0.58433497	3.2857228	0.013451255	96.412504	0	0	1				2.71E-08	9.362257	0.097361421	0.00010268	0
4406824.06		4881	0	0.336	50000.16	9.30E-06	0.31225785	0.006279173	3.22E-05	1.16E-06	0.011643036	0.001033	0.087054411	0.002503	1.0580589	3.0187642	0	100	0	0	1				2.88E-08	9.857168	0.097504967	0.000103207	0
4406874.97		4881	0	0.3359	50000.16	9.30E-06	0.31210416	0.006034918	3.26E-05	9.65E-07	0.011629514	0.001031	0.088007764	0.002257	1.4029231	2.9748551	0.002179045	99.359187	0	0	1				2.97E-08	9.056293	0.097409009	0.000104581	0
4407099.06		4881	0	0.3762	50000.16	9.20E-06	0.34985918	0.007511449	2.96E-05	8.31E-07	0.014213233	0.0007571	0.083517155	0.001944	1.294732	2.4111979	0.002944055	99.13253	0	0	1				3.48E-08	8.924565	0.12240144	8.47E-05	0
4407143.83		4881	0	0.3761	50000.16	9.20E-06	0.34961999	0.006949803	2.94E-05	9.73E-07	0.014203771	0.0007592	0.082919625	0.002277	0.92786548	2.4056802	0.005225795	98.460685	0	0	1				3.48E-08	7.233594	0.12223414	8.40E-05	0
4407187.45		4881	0	0.3759	50000.16	9.20E-06	0.34944073	0.006916759	2.90E-05	9.42E-07	0.014181229	0.0007642	0.082136695	0.002204	0.9817603	2.3055702	0.001596372	99.514403	0	0	1				3.57E-08	7.217041	0.12210882	8.31E-05	0
4407406.81		4881	0	0.42	50000.16	9.40E-06	0.39083137	0.008096865	2.82E-05	5.10E-07	0.017297055	0.0005663	0.083180098	0.001194	1.5242284	1.970685	0.006680365	97.930465	0	0	1				4.28E-08	6.916711	0.15274916	7.20E-05	0
4407448.64		4881	0	0.42	50000.16	9.30E-06	0.39059531	0.007341161	2.86E-05	7.99E-07	0.017291716	0.0005652	0.084302178	0.001782	1.0817035	1.9145682	0	100	0	0	1				4.40E-08	5.912055	0.15256469	7.33E-05	0
4407487		4881	0	0.4199	50000.16	9.40E-06	0.39040423	0.007532856	2.78E-05	5.63E-07	0.017285831	0.0005639	0.082239238	0.001317	0.70860782	1.9340612	0.006273581	98.0361	0	0	1				4.31E-08	5.743705	0.15241546	7.11E-05	0
4407705.78		4881	0	0.4688	50000.16	9.40E-06	0.43651988	0.008590476	3.03E-05	6.89E-07	0.01964326	0.0009495	0.090660157	0.001613	1.1499596	1.6959958	0.001811015	99.369934	0	0	1				5.37E-08	5.802184	0.1905496	6.95E-05	0
4407742.56		4881	0	0.469	50000.16	9.40E-06	0.43638648	0.008138129	3.02E-05	8.27E-07	0.019643755	0.0009495	0.090369307	0.001934	1.2323769	1.714708	0.005461084	98.119582	0	0	1				5.33E-08	5.087987	0.19043316	6.93E-05	0
4407781.91		4881	0	0.469	50000.16	9.30E-06	0.43607482	0.007996159	3.03E-05	1.20E-06	0.019633473	0.0009482	0.090649464	0.002635	0.99329698	1.6767483	0	100	0	0	1				5.41E-08	5.144124	0.19016125	6.96E-05	0
4407999.25		4881	0	0.525	50000.16	9.40E-06	0.48830038	0.009212973	3.79E-05	9.52E-07	0.020462774	0.000899	0.10904705	0.002227	0.746715	1.8175407	0.011391386	95.828901	0	0	1				6.17E-08	5.030245	0.23843726	7.75E-05	0
4408038.89		4881	0	0.5252	50000.16	9.30E-06	0.48864419	0.009079761	3.83E-05	1.27E-06	0.020465934	0.0008992	0.11011197	0.002837	0.94642639	1.6570621	0	100	0	0	1				6.65E-08	5.452622	0.23877314	7.84E-05	0
4408076.03		4881	0	0.525	50000.16	9.40E-06	0.48845004	0.009095347	3.75E-05	9.19E-07	0.020463304	0.000899	0.10815653	0.002151	0.93889206	1.7050567	0.005318794	97.952873	0	0	1				6.43E-08	4.971186	0.23858344	7.67E-05	0
4408294.34		4881	0	0.5871	50000.16	9.30E-06	0.54634049	0.009428817	5.62E-05	1.79E-06	0.021322516	0.001076	0.15292507	0.004182	1.5838548	1.9393125	0.001634917	99.295	0	0	1				7.93E-08	5.11517	0.29848793	0.00010294	0
4408334.19		4881	0	0.587	50000.16	9.20E-06	0.54661009	0.010051415	5.55E-05	1.33E-06	0.021327988	0.001077	0.15122271	0.003108	0.95491974	1.9630979	0.005494323	97.663105	0	0	1				7.84E-08	5.817937	0.29878259	0.000101554	0
4408374.05		4881	0	0.5869	50000.16	9.40E-06	0.54680985	0.009976234	5.60E-05	1.41E-06	0.021332042	0.001078	0.1522691	0.00329	1.0371152	1.8848031	0.000628868	99.722668	0	0	1				8.10E-08	5.889294	0.29900101	0.000102332	0
4408593.31		4881	0	0.6562	50000.16	9.30E-06	0.61042892	0.009899995	8.49E-05	2.76E-06	0.023301105	0.001036	0.22195299	0.00645	0.90264889	2.5475911	0.007065808	96.992581	0	0	1				8.93E-08	5.654409	0.37262346	0.000139073	0
4408638.09		4881	0	0.6561	50000.16	9.40E-06	0.61126311	0.011267135	8.78E-05	2.07E-06	0.023314928	0.00103	0.22881258	0.004842	1.0962544	2.5018632	0.004778104	97.885232	0	0	1				9.31E-08	7.642773	0.37364259	0.000143669	0
4408686		4881	0	0.6559	50000.16	9.30E-06	0.61124671	0.010676371	8.91E-05	2.51E-06	0.023315142	0.00103	0.23175714	0.005777	0.95337948	2.3788511	0	100	0	0	1				9.74E-08	7.505589	0.37362254	0.000145731	0
4408908.44		4881	0	0.7342	50000.16	9.30E-06	0.68434601	0.010430954	0.000144099	2.26E-06	0.027523151	0.0007388	0.36471528	0.005297	1.2337565	3.1766083	0.001109256	99.49771	0	0	1				1.15E-07	7.136553	0.46832946	0.000210565	0
4408960.5		4881	0	0.734	50000.16	9.40E-06	0.68519394	0.011885237	0.000145683	1.84E-06	0.027576082	0.0007395	0.36847458	0.004313	0.93345084	3.1534084	0.000251182	99.884861	0	0	1				1.17E-07	9.529825	0.46949073	0.000212616	0
4409010.33		4881	0	0.7341	50000.16	9.40E-06	0.68511593	0.011883604	0.000145306	1.73E-06	0.027570306	0.0007394	0.36758566	0.004048	0.84652314	3.1642738	0.000414362	99.810997	0	0	1				1.16E-07	9.460225	0.46938384	0.000212089	0
4409237.75		4881	0	0.8201	50000.16	9.30E-06	0.76531165	0.011432371	0.000236866	3.51E-06	0.033340777	0.001043	0.58760693	0.008208	0.64483928	4.2552087	0.001606389	99.290711	0	0	1				1.39E-07	9.492822	0.58570192	0.000309503	0
4409294.36		4881	0	0.8201	50000.16	9.30E-06	0.7665007	0.013278669	0.000237806	2.80E-06	0.033419948	0.001047	0.58988592	0.006551	0.83723898	4.2585144	0.001296449	99.427817	0	0	1				1.39E-07	12.76563	0.58752332	0.000310249	0
4409352.36		4881	0	0.82	50000.16	9.20E-06	0.76664529	0.013273329	0.000237457	2.64E-06	0.033432418	0.001048	0.58908119	0.006174	1.1270125	4.2753784	0.002000549	99.119852	0	0	1				1.39E-07	12.77554	0.58774501	0.000309735	0
4409589.11		4881	0	0.9169	50000.16	9.20E-06	0.85748572	0.012806972	0.000377348	5.22E-06	0.042139246	0.001265	0.92513332	0.01223	1.616605	5.4781457	0.001159493	99.511179	0	0	1				1.70E-07	12.82614	0.73528176	0.000440063	0
4409655.66		4881	0	0.9172	50000.16	9.30E-06	0.85833163	0.014599142	0.000379799	4.17E-06	0.042203549	0.001263	0.93093203	0.009758	1.2445112	5.5792405	0.001213006	99.495554	0	0	1				1.68E-07	16.43444	0.7367332	0.000442485	0
4409720.33		4881	0	0.9171	50000.16	9.20E-06	0.85851353	0.014756875	0.000380495	3.85E-06	0.042225411	0.001262	0.93258259	0.009016	0.68128278	5.648223	0.001517133	99.375417	0	0	1				1.66E-07	16.73772	0.73704547	0.000443202	0
4409966.59		4881	0	1.0252	50000.16	9.40E-06	0.96124989	0.014703342	0.000573903	3.66E-06	0.053676201	0.0009482	1.396609	0.008569	1.0736198	7.0448852	0.001505425	99.418901	0	0	1				1.99E-07	16.94467	0.92400136	0.000597038	0
4410043.17		4881	0	1.0251	50000.16	9.30E-06	0.96191571	0.016479452	0.000577204	3.05E-06	0.053731757	0.0009497	1.4043885	0.007127	1.3768787	7.1268329	0.001372863	99.474132	0	0	1				1.98E-07	21.13466	0.92528184	0.000600056	0
4410121.34		4881	0	1.0252	50000.16	9.30E-06	0.96221515	0.016438461	0.000576134	3.21E-06	0.053761603	0.0009504	1.4019149	0.007517	0.81662366	6.9644967	0.000438469	99.829033	0	0	1				2.02E-07	21.3805	0.925858	0.000598758	0
4421968.84		4881	0	1.1469	50000.16	9.30E-06	1.0768909	0.016448961	0.000851744	5.87E-06	0.068920473	0.001467	2.0620011	0.01373	0.55304161	8.7272536	0.00109561	99.610096	0	0	1				2.37E-07	20.89349	1.159694	0.000790929	0
4422058.3		4881	0	1.1466	50000.16	9.20E-06	1.0784399	0.018551996	0.000840141	4.98E-06	0.069110178	0.001474	2.0350391	0.01165	0.64070976	8.5535487	0.000809437	99.710824	0	0	1				2.39E-07	26.18176	1.1630327	0.000779033	0
4422145.28		4881	0	1.1467	50000.16	9.40E-06	1.0783272	0.018494294	0.000834086	4.77E-06	0.069093862	0.001473	2.0208556	0.01117	1.6073259	8.5772085	0.000972818	99.655501	0	0	1				2.36E-07	25.66065	1.1627894	0.0007735	0
4422437.13		4881	0	1.2823	50000.16	9.20E-06	1.2076181	0.01946188	0.001172809	7.28E-06	0.09113196	0.001724	2.8355048	0.01704	0.98368264	10.635007	0.001552687	99.528712	0	0	1				2.68E-07	25.73163	1.4583415	0.000971175	0
4422540.53		4881	0	1.2819	50000.16	9.40E-06	1.2083812	0.02032148	0.001155813	7.72E-06	0.091226275	0.001725	2.7958279	0.01798	2.4860135	9.6251107	0	100	0	0	1				2.90E-07	31.90502	1.4601851	0.000956497	0
4422638.06		4881	0	1.2819	50000.16	9.20E-06	1.2077285	0.019787988	0.001168154	6.42E-06	0.091145884	0.001725	2.8246269	0.01493	0.84321841	10.076446	0	100	0	0	1				2.80E-07	28.87533	1.4586081	0.000967233	0
4422935.63		4881	0	1.4328	50000.16	9.40E-06	1.3527735	0.022208149	0.001539451	9.76E-06	0.12099927	0.002587	3.7233146	0.02284	1.2195638	11.711499	0.001469233	99.599601	0	0	1				3.19E-07	30.22934	1.8299963	0.001137996	0
4423045.48		4881	0	1.4329	50000.16	9.30E-06	1.353965	0.023750454	0.001544197	7.69E-06	0.12121796	0.002593	3.7346379	0.01801	0.90385282	11.601021	0.002276424	99.371713	0	0	1				3.24E-07	35.1345	1.8332213	0.0011405	0
4423154.55		4881	0	1.4331	50000.16	9.20E-06	1.3534942	0.02287265	0.001546784	8.08E-06	0.12116977	0.002592	3.740644	0.01874	1.0601378	11.352107	0	100	0	0	1				3.30E-07	34.80306	1.8319467	0.001142808	0
4423461.45		4881	0	1.6019	50000.16	9.40E-06	1.5173849	0.025037992	0.001972502	5.87E-06	0.16524579	0.003163	4.7808992	0.01372	1.0193579	12.627048	0.001873547	99.553626	0	0	1				3.80E-07	34.05632	2.302457	0.001299935	0
4423577.52		4881	0	1.602	50000.16	9.20E-06	1.517675	0.025662705	0.001981763	5.60E-06	0.16537227	0.00316	4.8026985	0.01273	1.4732693	12.453177	0	100	0	0	1				3.86E-07	37.88114	2.3033373	0.001305789	0
4423693.14		4881	0	1.6021	50000.16	9.40E-06	1.5178937	0.026183267	0.0019822	5.58E-06	0.16535459	0.00316	4.8037036	0.01306	1.3531405	12.612353	0.001812842	99.565919	0	0	1				3.82E-07	37.35953	2.3040013	0.001305889	0
4424012.31		4881	0	1.7919	50000.16	9.30E-06	1.7021035	0.028841749	0.002409691	7.66E-06	0.2243787	0.002433	5.8630562	0.01792	1.2764291	13.380595	0.001662952	99.661354	0	0	1				4.40E-07	37.83706	2.8971563	0.001415714	0
4424134.42		4881	0	1.7921	50000.16	9.20E-06	1.7024445	0.029833937	0.002419588	6.88E-06	0.22447277	0.002435	5.8863094	0.01609	0.98537088	13.4935	0.001644062	99.666887	0	0	1				4.38E-07	40.14179	2.8983172	0.001421244	0
4424256.19		4881	0	1.7918	50000.16	9.20E-06	1.7025993	0.029985873	0.002407733	6.91E-06	0.22449719	0.002435	5.8585924	0.01616	1.5636952	13.410631	0.00153018	99.689549	0	0	1				4.38E-07	40.4805	2.8988444	0.001414151	0
4424579.13		4881	0	2.003	50000.16	9.20E-06	1.9076001	0.033140475	0.002844155	8.93E-06	0.30955621	0.00366	6.9648786	0.0209	1.2544997	13.978622	0.002443264	99.587038	0	0	1				5.00E-07	40.23189	3.6389382	0.00149096	0
4424706.22		4881	0	2.0029	50000.16	9.40E-06	1.9082852	0.033897428	0.002852829	8.36E-06	0.30986276	0.003664	6.985482	0.01956	1.7798374	13.941723	0.001228956	99.791695	0	0	1				5.02E-07	41.93587	3.6415523	0.00149497	0
4424831.69		4881	0	2.003	50000.16	9.30E-06	1.9080369	0.033772085	0.00285148	9.26E-06	0.30974027	0.003663	6.9822028	0.02167	0.85004214	13.918035	0.002494868	99.575675	0	0	1				5.04E-07	41.82517	3.6406047	0.001494457	0
4425156.48		4881	0	2.2398	50000.16	9.20E-06	2.138472	0.03779773	0.003288485	1.02E-05	0.43366099	0.005534	8.1287167	0.02393	0.98651595	14.320066	0.005223736	99.273508	0	0	1				5.71E-07	41.75411	4.5730626	0.001537773	0
4425283.78		4881	0	2.2398	50000.16	9.40E-06	2.1390197	0.038308756	0.003298386	9.99E-06	0.43392596	0.005535	8.1521495	0.02339	0.89761846	14.168823	0.002799127	99.60676	0	0	1				5.77E-07	42.9602	4.5754055	0.001542008	0
4425411.8		4881	0	2.2399	50000.16	9.40E-06	2.1385923	0.037130752	0.003306615	1.11E-05	0.43390293	0.005535	8.1713829	0.02536	0.66451684	14.029005	0	100	0	0	1				5.82E-07	42.50647	4.5735769	0.001546165	0
4425740.06		4881	0	2.504	50000.16	9.30E-06	2.3962485	0.042847621	0.003720766	6.31E-06	0.6118051	0.003458	9.3183973	0.01477	1.311869	14.340238	0.00421047	99.51965	0	0	1				6.53E-07	42.08701	5.7420069	0.001552746	0
4425869.55		4881	0	2.5045	50000.16	9.30E-06	2.3991911	0.043439854	0.003710688	7.18E-06	0.61392282	0.003457	9.2969317	0.01679	1.0879278	14.16704	0.002506631	99.7125	0	0	1				6.58E-07	43.02071	5.7561179	0.001546641	0
4425994.98		4881	0	2.504	50000.16	9.30E-06	2.4008345	0.043173639	0.003709714	7.39E-06	0.61518637	0.003457	9.2959168	0.01728	1.5709875	14.312446	0.004313918	99.510483	0	0	1				6.52E-07	42.50112	5.7640061	0.001545177	0
4426325.23		4881	0	2.8005	50000.16	9.40E-06	2.6893966	0.049134649	0.004069089	7.38E-06	0.86717362	0.004445	10.388841	0.01727	1.2112799	14.181605	0.004026809	99.627905	0	0	1				7.35E-07	42.93734	7.232854	0.001513012	0
4426450.31		4881	0	2.7999	50000.16	9.30E-06	2.6890716	0.049125126	0.004082766	7.87E-06	0.86684021	0.004444	10.420512	0.01841	1.1517754	14.184334	0.0039816	99.631012	0	0	1				7.37E-07	42.54481	7.2311061	0.001518281	0
4426578.7		4881	0	2.7997	50000.16	9.30E-06	2.6911703	0.049117401	0.004081194	8.21E-06	0.86897193	0.00445	10.418966	0.0192	1.202568	14.159995	0.001402898	99.870286	0	0	1				7.37E-07	42.553	7.2423974	0.001516513	0
4426696.34		4881	0	2.8	50000.16	9.30E-06	2.684338	0.041151485	0.004068746	1.09E-05	0.86294576	0.004433	10.383812	0.0255	0.95588344	14.276353	0.004784248	99.558876	0	0	1				7.30E-07	30	7.2056707	0.001515736	0
4426821.84		4881	0	2.8002	50000.16	9.40E-06	2.6895913	0.049545339	0.004076597	7.55E-06	0.86742326	0.004446	10.406661	0.01767	0.89870216	14.25512	0.003898854	99.641154	0	0	1				7.32E-07	42.82906	7.2339012	0.001515694	0
4426948.67		4881	0	2.7998	50000.16	9.20E-06	2.6912912	0.049345907	0.004072457	8.17E-06	0.8691416	0.004451	10.39869	0.01912	0.98394291	14.205532	0.004061765	99.625752	0	0	1				7.34E-07	42.76536	7.2430485	0.001513198	0
4427241.13		4881	0	2.8339	50000.16	9.20E-06	2.7266352	0.048063633	0.004120117	8.70E-06	0.90666091	0.004561	10.547734	0.01985	0.91260155	14.093251	0	100	0	0	1				7.48E-07	42.6166	7.4345395	0.001511063	0
4427367.8		4881	0	2.8342	50000.16	9.20E-06	2.7218094	0.049598852	0.004121686	8.23E-06	0.90112966	0.004544	10.545874	0.01926	1.2246217	14.211054	0.00451428	99.59239	0	0	1				7.45E-07	42.27975	7.4082463	0.001514318	0
4427497.56		4881	0	2.8337	50000.16	9.40E-06	2.7208853	0.048416447	0.004143307	7.99E-06	0.90059432	0.004543	10.595933	0.01814	1.1681262	14.108918	0	100	0	0	1				7.51E-07	42.63316	7.4032169	0.001522779	0
4427790.92		4881	0	2.8692	50000.16	9.20E-06	2.7559195	0.048616091	0.004172699	9.28E-06	0.93824713	0.004658	10.702362	0.02121	1.2576331	14.065447	0	100	0	0	1				7.61E-07	42.32675	7.5950921	0.001514086	0
4427917.16		4881	0	2.8687	50000.16	9.40E-06	2.7582645	0.050210678	0.004164904	8.18E-06	0.94039725	0.004665	10.686273	0.01915	1.1837683	14.225236	0.004505482	99.604318	0	0	1				7.54E-07	42.19634	7.6080231	0.001509973	0
4428044.8		4881	0	2.8686	50000.16	9.30E-06	2.7595444	0.050429869	0.004157543	7.67E-06	0.94164631	0.004669	10.670297	0.01794	1.3259379	14.140441	0.003831142	99.662517	0	0	1				7.57E-07	42.67571	7.6150855	0.001506605	0
4428336.19		4881	0	2.9028	50000.16	9.40E-06	2.7944402	0.050901758	0.004186015	7.76E-06	0.98048662	0.0048	10.77576	0.01816	0.91125982	14.270824	0.007445153	99.366615	0	0	1				7.59E-07	42.42132	7.8088961	0.00149798	0
4428464.53		4881	0	2.9026	50000.16	9.30E-06	2.7902502	0.051068459	0.004211621	9.04E-06	0.97568957	0.004783	10.830883	0.02114	1.6613833	14.093673	0.002560897	99.778	0	0	1				7.70E-07	42.81247	7.7854961	0.001509406	0
4428589.61		4881	0	2.9031	50000.16	9.20E-06	2.7916487	0.050849081	0.004203861	8.38E-06	0.97740688	0.004789	10.814442	0.0196	1.1127736	14.16017	0.002900421	99.750441	0	0	1				7.65E-07	42.28102	7.7933026	0.00150587	0
4428883.86		4881	0	2.938	50000.16	9.40E-06	2.8250387	0.051327144	0.00423959	8.38E-06	1.0153015	0.00493	10.935943	0.01962	0.76571871	14.133917	0.004397886	99.629659	0	0	1				7.76E-07	42.48051	7.9808435	0.001500719	0
4429011.94		4881	0	2.9378	50000.16	9.30E-06	2.8254902	0.050111824	0.004251895	9.11E-06	1.0164528	0.004935	10.965887	0.02073	1.0578667	13.997437	0	100	0	0	1				7.83E-07	42.40175	7.9833951	0.001504834	0
4429139.95		4881	0	2.9379	50000.16	9.20E-06	2.8276097	0.051548841	0.004231621	8.18E-06	1.0184228	0.004942	10.920416	0.01914	1.0578185	14.149983	0.003414146	99.714138	0	0	1				7.74E-07	41.99231	7.9953764	0.001496536	0
4429435.91		4881	0	2.9721	50000.16	9.30E-06	2.8568894	0.050565186	0.004302201	1.02E-05	1.0531506	0.005088	11.120302	0.02323	1.422875	14.046939	0	100	0	0	1				7.92E-07	42.44995	8.1618168	0.001505904	0
4429562.58		4881	0	2.9717	50000.16	9.30E-06	2.8579704	0.050777871	0.0042868	9.80E-06	1.0545617	0.005095	11.085673	0.02236	1.9339835	13.995651	0	100	0	0	1				7.92E-07	42.14082	8.1679948	0.001499945	0
4429688.36		4881	0	2.9728	50000.16	9.20E-06	2.8557945	0.05228228	0.004271691	8.61E-06	1.051378	0.00508	11.047136	0.02014	1.5152557	14.133105	0.006062249	99.500298	0	0	1				7.85E-07	41.98695	8.1555624	0.001495798	0
4429980.17		4881	0	3.0067	50000.16	9.30E-06	2.8930656	0.052615536	0.004322902	8.23E-06	1.0959369	0.005292	11.211527	0.01925	0.74152468	14.114096	0.003667583	99.70482	0	0	1				7.96E-07	42.39931	8.3698284	0.001494229	0
4430107.64		4881	0	3.0073	50000.16	9.20E-06	2.8942826	0.052939719	0.004326079	8.08E-06	1.0974713	0.0053	11.220496	0.01891	0.68366097	14.164562	0.004434216	99.644445	0	0	1				7.94E-07	42.34229	8.3768716	0.001494698	0
4430235.34		4881	0	3.0072	50000.16	9.20E-06	2.8946294	0.053067846	0.004329784	8.14E-06	1.0979026	0.005302	11.229597	0.01906	0.40281443	14.160061	0.004544672	99.635315	0	0	1				7.95E-07	42.49369	8.3788795	0.001495799	0
4430524.55		4881	0	3.0409	50000.16	9.20E-06	2.9309971	0.053460258	0.004337382	8.60E-06	1.1428962	0.005538	11.292369	0.02013	0.75260934	14.068575	0.003732249	99.707838	0	0	1				8.05E-07	42.48018	8.5907437	0.001479831	0
4430650.45		4881	0	3.0407	50000.16	9.30E-06	2.9303742	0.053656199	0.0043512	8.51E-06	1.1423501	0.005535	11.324159	0.01992	1.4867599	14.183548	0.005114778	99.601433	0	0	1				8.01E-07	42.20573	8.5870928	0.001484862	0
4430777.84		4881	0	3.0408	50000.16	9.40E-06	2.9284016	0.053826914	0.004356031	8.35E-06	1.1396928	0.005521	11.332804	0.01953	0.98047977	14.119447	0.00376145	99.704939	0	0	1				8.05E-07	42.55064	8.5755361	0.001487511	0
4431069.5		4881	0	3.0761	50000.16	9.40E-06	2.9640749	0.05384063	0.004383594	8.93E-06	1.184902	0.005769	11.442511	0.0209	0.82165933	13.994479	0.002868627	99.778886	0	0	1				8.19E-07	42.35834	8.7857402	0.001478908	0
4431197.58		4881	0	3.0762	50000.16	9.40E-06	2.9597968	0.05277484	0.00441677	1.08E-05	1.1804168	0.005744	11.515659	0.02462	1.4253824	14.046591	0	100	0	0	1				8.20E-07	41.98344	8.7603972	0.001492255	0
4431323.81		4881	0	3.0756	50000.16	9.30E-06	2.9647586	0.054044986	0.004393261	9.32E-06	1.1859782	0.005775	11.466208	0.0218	1.1913693	14.012161	0.004272141	99.670563	0	0	1				8.20E-07	42.13977	8.7897933	0.001481828	0
4431612.3		4881	0	3.1102	50000.16	9.40E-06	2.9957147	0.054402101	0.004422803	9.64E-06	1.2262566	0.006001	11.575615	0.02256	1.0058386	14.045521	0.005411556	99.592205	0	0	1				8.27E-07	42.03648	8.9743065	0.001476377	0
4431739.41		4881	0	3.1103	50000.16	9.30E-06	2.999747	0.055025726	0.004405233	9.91E-06	1.2315868	0.00603	11.539833	0.02319	1.1539413	14.03613	0.00334743	99.749468	0	0	1				8.24E-07	42.13656	8.998482	0.001468535	0
4431863.8		4881	0	3.1098	50000.16	9.30E-06	2.9973232	0.055064503	0.004405192	9.45E-06	1.2284123	0.006013	11.536562	0.02211	1.3592409	14.034981	0.004681335	99.648683	0	0	1				8.24E-07	42.10839	8.9839462	0.001469709	0
4432154.38		4881	0	3.1443	50000.16	9.40E-06	3.0277471	0.055202428	0.004468981	1.08E-05	1.2688219	0.006236	11.726237	0.02529	1.4403986	14.101192	0.005530426	99.592578	0	0	1				8.34E-07	42.10494	9.1672524	0.001476009	0
4432279.08		4881	0	3.1454	50000.16	9.30E-06	3.0307704	0.055611047	0.004470569	9.71E-06	1.2728658	0.006258	11.733996	0.02272	0.79901357	14.052689	0.003351388	99.753038	0	0	1				8.37E-07	42.30358	9.1855693	0.00147506	0
4432405.19		4881	0	3.1452	50000.16	9.40E-06	3.0286305	0.055771924	0.004456839	8.69E-06	1.270074	0.006243	11.699077	0.02034	0.76837762	14.11213	0.007531981	99.446685	0	0	1				8.33E-07	42.15807	9.1726026	0.001471569	0
4432696.33		4881	0	3.1791	50000.16	9.40E-06	3.0646808	0.055974727	0.004488626	9.80E-06	1.3186319	0.006503	11.822016	0.02294	0.75828478	14.009791	0.005257165	99.620503	0	0	1				8.46E-07	42.33639	9.3922687	0.001464631	0
4432821.61		4881	0	3.1788	50000.16	9.30E-06	3.0622844	0.05620319	0.004499494	9.13E-06	1.3156206	0.006487	11.844436	0.02137	0.85761101	14.128067	0.00544709	99.608627	0	0	1				8.41E-07	42.02937	9.3775859	0.001469326	0
4432949.16		4881	0	3.1797	50000.16	9.30E-06	3.0650476	0.05654891	0.00448755	1.01E-05	1.3192223	0.006506	11.820088	0.02351	0.85627959	14.099028	0.004713418	99.662171	0	0	1				8.41E-07	42.3842	9.394517	0.001464104	0
4433238.09		4881	0	3.214	50000.16	9.30E-06	3.0950743	0.056322938	0.004554906	8.98E-06	1.3607328	0.006714	12.019213	0.02101	0.73618167	14.042627	0.004512782	99.679314	0	0	1				8.58E-07	42.29709	9.5794851	0.001471663	0
4433364.27		4881	0	3.2135	50000.16	9.30E-06	3.0998997	0.056947924	0.004525661	9.45E-06	1.3675236	0.006747	11.957571	0.02211	1.1299832	14.07975	0.005544322	99.610351	0	0	1				8.52E-07	42.12788	9.609378	0.001459938	0
4433491.22		4881	0	3.2138	50000.16	9.40E-06	3.0953149	0.056791277	0.004534263	9.31E-06	1.3610928	0.006716	11.971267	0.02179	0.88104958	14.013536	0.004652846	99.669887	0	0	1				8.56E-07	42.23925	9.5809744	0.001464879	0
4433776.8		4881	0	3.2486	50000.16	9.40E-06	3.1313015	0.057444962	0.004553705	9.44E-06	1.41166	0.006947	12.067329	0.0221	1.6975278	14.151442	0.007408419	99.491749	0	0	1				8.56E-07	42.04061	9.8050494	0.001454253	0
4433904.28		4881	0	3.2476	50000.16	9.40E-06	3.1308933	0.057446825	0.004549959	1.01E-05	1.410689	0.006943	12.057593	0.02371	1.5930069	13.843457	0.003173778	99.777802	0	0	1				8.73E-07	42.45432	9.8024931	0.001453246	0
4434029.58		4881	0	3.2476	50000.16	9.40E-06	3.1341047	0.057256289	0.004552328	1.01E-05	1.4155357	0.006964	12.067982	0.02353	0.9752466	14.057605	0.005263425	99.637642	0	0	1				8.61E-07	41.53037	9.8226125	0.001452513	0
4434318.55		4881	0	3.2827	50000.16	9.20E-06	3.1640511	0.057805557	0.004602902	1.02E-05	1.4581861	0.007145	12.228976	0.02394	0.85323105	14.007723	0.006288197	99.571541	0	0	1				8.76E-07	42.17282	10.01122	0.00145475	0
4434444.91		4881	0	3.2827	50000.16	9.30E-06	3.1645912	0.057929369	0.00458934	9.64E-06	1.4589977	0.007148	12.198053	0.02255	1.0685072	14.054613	0.006336605	99.570831	0	0	1				8.71E-07	42.02317	10.014638	0.001450216	0
4434571.22		4881	0	3.2831	50000.16	9.30E-06	3.1612557	0.058106406	0.004598067	9.58E-06	1.454178	0.007128	12.213654	0.02242	0.84481048	13.971475	0.004876456	99.666614	0	0	1				8.76E-07	42.16384	9.9935377	0.001454506	0
4434856.89		4881	0	3.3172	50000.16	9.40E-06	3.1953383	0.058299177	0.004635959	9.42E-06	1.5034449	0.007331	12.35159	0.02205	1.2643728	14.100411	0.007310934	99.513709	0	0	1				8.79E-07	41.91442	10.210187	0.001450851	0
4434982.67		4881	0	3.3164	50000.16	9.30E-06	3.1977069	0.059095377	0.00459628	9.91E-06	1.5067855	0.007344	12.262081	0.02319	0.73548581	13.858708	0.003060777	99.794863	0	0	1				8.86E-07	42.30123	10.225329	0.001437368	0
4435107.63		4881	0	3.3171	50000.16	9.30E-06	3.1961729	0.058302163	0.004622279	1.00E-05	1.5046283	0.007335	12.32076	0.02344	0.96349726	14.031863	0.00833496	99.444253	0	0	1				8.82E-07	41.57612	10.215521	0.001446192	0
4435398.97		4881	0	3.3517	50000.16	9.20E-06	3.2336961	0.058956117	0.004638667	1.05E-05	1.5596384	0.007552	12.414118	0.02454	1.3357581	13.857658	0.002726636	99.820713	0	0	1				8.97E-07	42.09559	10.45679	0.001434478	0
4435523.59		4881	0	3.3518	50000.16	9.20E-06	3.2308069	0.058834161	0.00466248	1.10E-05	1.5553497	0.007536	12.465554	0.02567	0.99717022	13.863699	0.002649341	99.824843	0	0	1				9.00E-07	41.57297	10.438113	0.001443132	0
4435648.8		4881	0	3.352	50000.16	9.30E-06	3.2319269	0.059010752	0.004661417	9.90E-06	1.5571337	0.007543	12.46485	0.02317	1.2832742	14.003654	0.005682872	99.628034	0	0	1				8.93E-07	41.5911	10.445351	0.001442303	0
4435937.58		4881	0	3.3856	50000.16	9.30E-06	3.2658828	0.059877544	0.004655295	1.06E-05	1.607912	0.007734	12.501303	0.02487	0.70410333	13.920234	0.003287757	99.789033	0	0	1				9.00E-07	42.01096	10.665991	0.001425432	0
4436062.5		4881	0	3.3857	50000.16	9.30E-06	3.2658362	0.060183759	0.004654965	9.85E-06	1.6079526	0.007734	12.500571	0.02306	0.60563382	14.002363	0.006882336	99.560475	0	0	1				8.96E-07	41.7607	10.665686	0.001425352	0
4436189.13		4881	0	3.3863	50000.16	9.30E-06	3.267064	0.060293024	0.00467207	1.14E-05	1.6098084	0.007741	12.542453	0.0267	0.64952101	14.02674	0.00428023	99.726854	0	0	1				8.96E-07	42.00709	10.673707	0.001430052	0
4436477.89		4881	0	3.4212	50000.16	9.30E-06	3.3007004	0.06057482	0.004687538	1.05E-05	1.6611984	0.007925	12.630038	0.02448	1.6174935	14.068999	0.008251654	99.485188	0	0	1				9.01E-07	42.08022	10.894623	0.001420165	0
4436604.81		4881	0	3.4219	50000.16	9.40E-06	3.294974	0.060803622	0.004713549	1.01E-05	1.6523444	0.007894	12.682048	0.02361	1.0303294	13.999103	0.005365391	99.661177	0	0	1				9.08E-07	42.207	10.856853	0.001430527	0
4436733.08		4881	0	3.4208	50000.16	9.20E-06	3.2951606	0.059185616	0.004699736	1.33E-05	1.653581	0.007899	12.650963	0.03005	0.96867564	13.843725	0	100	0	0	1				9.14E-07	41.99731	10.858083	0.001426254	0
4437021.27		4881	0	3.4547	50000.16	9.20E-06	3.3329492	0.060696678	0.004729028	1.11E-05	1.7113163	0.008096	12.777242	0.02594	1.0744697	14.006488	0.006090176	99.624443	0	0	1				9.15E-07	41.53118	11.10855	0.001418872	0
4437147.59		4881	0	3.4549	50000.16	9.40E-06	3.3377282	0.061937384	0.00467884	1.14E-05	1.7190192	0.008122	12.667504	0.02678	1.1450911	14.04437	0.010046734	99.388224	0	0	1				9.06E-07	42.01946	11.140429	0.001401804	0
4437272.72		4881	0	3.4546	50000.16	9.40E-06	3.3319124	0.061399729	0.004723039	1.07E-05	1.7097187	0.008091	12.76163	0.02493	1.124242	13.95284	0.005842724	99.638431	0	0	1				9.17E-07	42.13311	11.10164	0.001417516	0
4437560.63		4881	0	3.4902	50000.16	9.30E-06	3.3640075	0.061714966	0.004722938	1.05E-05	1.7605961	0.008256	12.812272	0.02464	1.127605	13.870806	0.004598572	99.71992	0	0	1				9.26E-07	41.85852	11.316546	0.001403962	0
4437685.98		4881	0	3.4907	50000.16	9.30E-06	3.3665665	0.062522514	0.004726541	1.14E-05	1.7649417	0.008269	12.825048	0.02668	1.0073839	14.105128	0.004811162	99.712185	0	0	1				9.11E-07	41.61242	11.33377	0.001403965	0
4437813.19		4881	0	3.4903	50000.16	9.30E-06	3.3645208	0.062212481	0.004729061	1.15E-05	1.7612755	0.008258	12.827279	0.02699	1.4404405	13.935147	0.004401791	99.732984	0	0	1				9.22E-07	42.31538	11.32	0.001405568	0
4438102.23		4881	0	3.5236	50000.16	9.40E-06	3.3954535	0.060792373	0.004767236	1.30E-05	1.8127438	0.008415	12.968077	0.02927	1.6764199	13.847757	0	100	0	0	1				9.36E-07	41.80544	11.529105	0.001404006	0
4438227.42		4881	0	3.5237	50000.16	9.30E-06	3.3933915	0.060832275	0.004767432	1.32E-05	1.8093421	0.008405	12.965134	0.02962	0.7779198	13.798873	0	100	0	0	1				9.40E-07	41.54327	11.515106	0.001404917	0
4438352.42		4881	0	3.5241	50000.16	9.30E-06	3.3970976	0.062509799	0.004774476	1.09E-05	1.8144112	0.00842	12.986685	0.02543	0.88471753	14.023458	0.00503728	99.700714	0	0	1				9.28E-07	41.39662	11.540272	0.001405457	0
4438641.97		4881	0	3.5594	50000.16	9.40E-06	3.4286544	0.063244161	0.004779198	1.13E-05	1.8667518	0.00857	13.050075	0.02633	1.265471	13.997137	0.00508773	99.703066	0	0	1				9.34E-07	42.07037	11.755671	0.001393899	0
4438768.47		4881	0	3.5589	50000.16	9.40E-06	3.4313491	0.061972786	0.004775546	1.38E-05	1.8724016	0.008585	13.047178	0.03116	1.2593538	13.836597	0	100	0	0	1				9.43E-07	41.99141	11.774157	0.00139174	0
4438894.73		4881	0	3.5588	50000.16	9.30E-06	3.4314315	0.061503201	0.004784395	1.36E-05	1.8724641	0.008586	13.067949	0.03057	1.1325651	13.810682	0	100	0	0	1				9.46E-07	41.50979	11.774722	0.001394286	0
4439183.45		4881	0	3.5929	50000.16	9.40E-06	3.464869	0.063396943	0.004779103	1.12E-05	1.9279889	0.008734	13.111089	0.02616	1.1998441	13.876296	0.00563859	99.675547	0	0	1				9.47E-07	41.43205	12.005317	0.001379303	0
4439309.22		4881	0	3.5934	50000.16	9.40E-06	3.4684337	0.062074326	0.004799187	1.30E-05	1.9352932	0.008753	13.16539	0.02923	0.96481601	13.782707	0	100	0	0	1				9.55E-07	41.62889	12.030032	0.001383675	0
4439433.98		4881	0	3.5928	50000.16	9.20E-06	3.4677431	0.06206969	0.004783001	1.41E-05	1.9340918	0.00875	13.126314	0.03178	0.6584088	13.758596	0	100	0	0	1				9.54E-07	41.34812	12.025242	0.001379284	0
4439719.88		4881	0	3.6285	50000.16	9.40E-06	3.4984912	0.06412584	0.00480019	1.05E-05	1.9861412	0.008881	13.218585	0.02455	0.99410033	13.896582	0.005059946	99.714454	0	0	1				9.53E-07	41.27579	12.239441	0.001372074	0
4439847.34		4881	0	3.628	50000.16	9.40E-06	3.4982482	0.062884684	0.004802159	1.27E-05	1.9869107	0.008883	13.223962	0.02841	0.8334493	13.71967	0	100	0	0	1				9.64E-07	41.68975	12.237741	0.001372732	0
4439972.3		4881	0	3.6285	50000.16	9.40E-06	3.4989483	0.062379306	0.004837109	1.35E-05	1.9884181	0.008886	13.307254	0.03022	1.2144473	13.860627	0	100	0	0	1				9.60E-07	41.15901	12.242639	0.001382447	0
4440295.59		4881	0	3.6617	50000.16	9.30E-06	3.5340183	0.064999502	0.00482551	1.15E-05	2.0489015	0.009029	13.340595	0.0269	0.77800126	13.974636	0.009192266	99.492878	0	0	1				9.58E-07	41.58188	12.489285	0.001365446	0
4440433.92		4881	0	3.6614	50000.16	9.30E-06	3.5273242	0.065112026	0.004847798	1.14E-05	2.0369688	0.009002	13.380817	0.02665	1.3179789	13.920541	0.007320598	99.591783	0	0	1				9.64E-07	41.92391	12.442016	0.001374356	0
4440559.19		4881	0	3.6615	50000.16	9.30E-06	3.5263986	0.063415955	0.004853582	1.34E-05	2.0365195	0.009001	13.3939	0.03011	1.2429999	13.799235	0	100	0	0	1				9.71E-07	41.76162	12.435487	0.001376357	0
4440844.22		4881	0	3.6964	50000.16	9.20E-06	3.5639378	0.065373273	0.004856796	1.26E-05	2.102468	0.009149	13.46737	0.02943	1.4432415	13.88817	0.004170103	99.771864	0	0	1				9.71E-07	41.39771	12.701653	0.001362761	0
4440968.55		4881	0	3.6971	50000.16	9.30E-06	3.5638818	0.066096093	0.00484216	1.18E-05	2.1025527	0.009149	13.433208	0.02757	0.93559848	13.947165	0.00955781	99.479773	0	0	1				9.67E-07	41.66451	12.701253	0.001358676	0
4441094.16		4881	0	3.697	50000.16	9.30E-06	3.5660245	0.06627018	0.004851509	1.12E-05	2.1064081	0.009157	13.458938	0.02614	1.0863761	13.941458	0.006330774	99.655515	0	0	1				9.68E-07	41.8415	12.71653	0.001360481	0
4441381.19		4881	0	3.7308	50000.16	9.30E-06	3.600588	0.066426466	0.004843407	1.10E-05	2.1694881	0.009289	13.50306	0.02569	1.0419736	13.815452	0.008917395	99.520409	0	0	1				9.81E-07	41.82437	12.964234	0.001345171	0
4441505.31		4881	0	3.7305	50000.16	9.30E-06	3.6007994	0.066624545	0.004858433	1.08E-05	2.1700189	0.00929	13.538753	0.02531	0.92154919	13.944343	0.009868843	99.473018	0	0	1				9.75E-07	41.44636	12.965756	0.001349265	0
4441630.55		4881	0	3.7308	50000.16	9.20E-06	3.600152	0.066761399	0.004865446	1.07E-05	2.1688383	0.009287	13.553982	0.02497	1.1090838	13.948502	0.009312287	99.502272	0	0	1				9.75E-07	41.83303	12.961094	0.001351456	0
4441919.33		4881	0	3.7661	50000.16	9.20E-06	3.6328668	0.065209804	0.0049142	1.52E-05	2.2309664	0.009408	13.730194	0.03429	0.63996131	13.831645	0	100	0	0	1				9.93E-07	41.8455	13.197721	0.001352706	0
4442044.45		4881	0	3.7662	50000.16	9.40E-06	3.632195	0.066988165	0.004907825	1.19E-05	2.2283041	0.009403	13.712613	0.02788	0.44874394	13.876748	0.003305606	99.824841	0	0	1				9.89E-07	41.49494	13.19284	0.001351201	0
4442170.27		4881	0	3.7657	50000.16	9.30E-06	3.6317708	0.06539579	0.00490243	1.40E-05	2.2288678	0.009404	13.700553	0.03126	1.0801387	13.745856	0	100	0	0	1				9.97E-07	41.63024	13.189759	0.001349873	0
4443770.8		4881	0	3.8005	50000.16	9.20E-06	3.6675682	0.066927421	0.004954753	1.25E-05	2.2957686	0.009526	13.889891	0.02923	0.90659446	14.027806	0.012256196	99.365118	0	0	1				9.95E-07	41.23757	13.451056	0.001350964	0
4444019.78		4881	0	3.7991	50000.16	9.30E-06	3.6702062	0.068184339	0.004919012	1.17E-05	2.3006017	0.009535	13.81109	0.02733	1.1163002	13.994555	0.010906598	99.437386	0	0	1				9.91E-07	42.08342	13.470414	0.001340255	0
4444220.44		4881	0	3.7999	50000.16	9.30E-06	3.6682919	0.067857879	0.004938483	1.23E-05	2.296849	0.009528	13.852899	0.02881	0.73501467	13.956414	0.00900541	99.53262	0	0	1				9.96E-07	41.98366	13.456365	0.001346262	0
4486118.08	CALFILE: DRPuck50_1.cal - Addenda #15 measured on 2/14/2020 from 0.22559 to 3.8638 K																												
4486118.14		4881	0	0.2299	20000.109	9.40E-06	0.2254371	0.005410925	0.00011853	2.04E-06	0.004924289	0.0002028	0.28228518	0.004761	0.73571918	21.718182	0	100	0	0	1				1.30E-08	61.98508	0.050821888	0.00052578	0
4486325.95		4881	0	0.2302	20000.109	9.20E-06	0.22556287	0.005361562	0.000122884	1.76E-06	0.004927625	0.0002073	0.29247607	0.004118	0.20381869	22.045235	0	100	0	0	1				1.33E-08	65.15455	0.050878606	0.000544788	0
4486514.84		4881	0	0.2296	20000.109	9.40E-06	0.22566891	0.005406334	0.000121429	1.99E-06	0.004930535	0.0002112	0.28907415	0.004656	1.2565674	21.587407	0	100	0	0	1				1.34E-08	66.1357	0.050926458	0.000538084	0
4486979.28		4881	0	0.2514	20000.109	9.30E-06	0.24603378	0.00573409	0.000132675	2.62E-07	0.005660405	0.0006141	0.31612102	0	0.90650176	19.157582	0	100	0	0	1				1.65E-08	64.76222	0.060532621	0.000539257	0
4487163.89		4881	0	0.2509	20000.109	9.30E-06	0.24568613	0.005694026	0.000128736	1.45E-06	0.00564883	0.0006162	0.30689035	0.003331	1.8341576	19.115853	0	100	0	0	1				1.61E-08	57.47275	0.060361673	0.000523984	0
4487349.42		4881	0	0.251	20000.109	9.30E-06	0.24583943	0.005749408	0.000120645	1.83E-06	0.0056533	0.0006154	0.28796369	0.004245	0.13764894	17.509697	0	100	0	0	1				1.64E-08	57.34756	0.060437026	0.000490749	0
4487684.97		4881	0	0.273	20000.109	9.30E-06	0.26692048	0.005638321	0.000156661	1.63E-07	0.006590997	0.0003816	0.37317777	0	0.95866685	19.42644	0	100	0	0	1				1.92E-08	52.52909	0.071246543	0.00058692	0
4487892.06		4881	0	0.2731	20000.109	9.20E-06	0.26714325	0.005996389	0.000140112	1.70E-06	0.006590648	0.0003816	0.33445297	0.003969	0.29734645	15.69711	0.00150667	99.500824	0	0	1				2.14E-08	58.27932	0.071365516	0.000524483	0
4488065.17		4881	0	0.2726	20000.109	9.40E-06	0.26695987	0.005824405	0.000140881	1.51E-06	0.006595066	0.0003811	0.33625621	0.003502	0.66953274	18.396901	0	100	0	0	1				1.83E-08	47.09133	0.07126757	0.000527723	0
4488412.31		4881	0	0.298	20000.109	9.20E-06	0.29091522	0.006524071	0.000171702	1.64E-06	0.007859075	0.0003677	0.40964154	0.003818	0.91139044	18.601592	0	100	0	0	1				2.20E-08	55.1907	0.084631663	0.000590213	0
4488590.89		4881	0	0.298	20000.109	9.30E-06	0.29107517	0.006587341	0.0001785	1.71E-06	0.007870204	0.0003686	0.42556127	0.003987	0.86312355	19.755493	0	100	0	0	1				2.15E-08	55.80478	0.084724756	0.000613245	0
4488760.38		4881	0	0.2978	20000.109	9.30E-06	0.29131901	0.006746096	0.000170224	1.60E-06	0.00787263	0.0003688	0.40619713	0.003741	0.70774151	17.466929	0.001420428	99.570418	0	0	1				2.34E-08	59.26648	0.084866767	0.000584322	0
4489195.89		4881	0	0.3249	20000.109	9.30E-06	0.31682423	0.006969909	0.000216675	2.40E-06	0.009001273	0.0006146	0.5160211	0.005622	0.34249884	21.732346	0.002685454	99.274122	0	0	1				2.39E-08	52.40079	0.10037759	0.000683897	0
4489377.56		4881	0	0.3252	20000.109	9.30E-06	0.31743471	0.007318517	0.000210618	2.08E-06	0.009017338	0.0006191	0.50186319	0.004871	0.43478517	18.478841	0.002542092	99.21462	0	0	1				2.74E-08	65.19704	0.10076479	0.0006635	0
4489536.89		4881	0	0.325	20000.109	9.30E-06	0.31695241	0.006702271	0.000229061	2.42E-06	0.009002556	0.000615	0.54500588	0.005668	0.9890675	20.577489	0.00172878	99.480325	0	0	1				2.66E-08	55.43652	0.10045883	0.000722699	0
4489948.42		4881	0	0.3537	20000.109	9.40E-06	0.34546433	0.007757063	0.000272578	2.70E-06	0.010815862	0.0008906	0.64864784	0.006316	0.31564257	22.671174	0.002058978	99.443207	0	0	1				2.88E-08	61.73247	0.1193456	0.000789019	0
4490136.88		4881	0	0.3543	20000.109	9.30E-06	0.34570523	0.007562994	0.000273643	2.67E-06	0.010820358	0.0008906	0.65114486	0.006254	0.27298068	19.93678	0.001782516	99.450041	0	0	1				3.28E-08	68.01352	0.1195121	0.00079155	0
4490325.84		4881	0	0.3542	20000.109	9.40E-06	0.34547001	0.007400352	0.000259945	3.18E-06	0.010807467	0.0008908	0.61907888	0.007438	0.74744296	19.051237	0.000552336	99.830708	0	0	1				3.25E-08	59.81034	0.11934953	0.000752439	0
4490699.02		4881	0	0.386	20000.109	9.40E-06	0.37619217	0.007344979	0.000362196	2.26E-06	0.012953073	0.0004597	0.86049267	0.005285	0.4368757	24.354221	0.003796589	98.937953	0	0	1				3.57E-08	57.15371	0.14152055	0.000962796	0
4490924.11		4881	0	0.3862	20000.109	9.40E-06	0.37667511	0.008358184	0.000351307	2.29E-06	0.012974687	0.0004601	0.83503262	0.005347	0.634743	22.866485	0.002913658	99.160377	0	0	1				3.68E-08	73.06266	0.14188414	0.000932652	0
4491138.17		4881	0	0.3859	20000.109	9.40E-06	0.37659529	0.008107815	0.00036264	2.09E-06	0.012974056	0.0004601	0.86155264	0.004891	0.36228914	24.063358	0.002453603	99.308041	0	0	1				3.60E-08	68.59946	0.14182402	0.000962945	0
4491560.91		4881	0	0.4199	20000.109	9.30E-06	0.40952674	0.008396616	0.000445892	3.93E-06	0.015445952	0.0006802	1.0588342	0.009195	1.7998741	24.658534	0.004482215	98.720043	0	0	1				4.35E-08	72.19007	0.16771215	0.001088799	0
4491788.59		4881	0	0.4201	20000.109	9.40E-06	0.40966261	0.00886752	0.000441522	2.87E-06	0.015461535	0.0006808	1.0486229	0.006725	0.61692932	25.524346	0.003841088	98.953786	0	0	1				4.15E-08	73.9756	0.16782346	0.00107777	0
4491996.88		4881	0	0.4201	20000.109	9.40E-06	0.40979685	0.009150628	0.000436093	2.73E-06	0.015472967	0.0006812	1.0359308	0.006394	0.10207141	25.495059	0.002595701	99.303456	0	0	1				4.09E-08	76.57304	0.16793346	0.001064169	0
4492432.77		4881	0	0.4577	20000.109	9.30E-06	0.44654406	0.008826876	0.000586219	4.24E-06	0.018555622	0.0008459	1.3903072	0.009917	1.2378304	27.653619	0.002728678	99.245276	0	0	1				5.06E-08	76.48518	0.1994016	0.00131279	0
4492684.08		4881	0	0.4582	20000.109	9.30E-06	0.4466129	0.009725149	0.000564229	3.70E-06	0.018560113	0.0008463	1.338855	0.008647	0.76520635	27.93547	0.001693043	99.554796	0	0	1				4.81E-08	82.96086	0.19946309	0.00126335	0
4492938.55		4881	0	0.4578	20000.109	9.40E-06	0.44643589	0.009185442	0.000584905	4.95E-06	0.018552566	0.0008456	1.3872304	0.01155	1.7263084	27.678602	0	100	0	0	1				5.01E-08	83.80641	0.19930501	0.001310166	0
4493391.92		4881	0	0.5	20000.109	9.30E-06	0.48722806	0.009605095	0.000750581	4.99E-06	0.022186085	0.001005	1.7785468	0.01168	1.2114982	31.092791	0.004706863	98.756412	0	0	1				5.79E-08	83.03581	0.23739119	0.001540514	0
4493637.98		4881	0	0.5001	20000.109	9.30E-06	0.48756583	0.010519443	0.000735773	4.07E-06	0.022215347	0.001006	1.7439248	0.00953	0.50269815	31.291766	0.005095355	98.688911	0	0	1				5.65E-08	93.27837	0.23772043	0.001509075	0
4493916.91		4881	0	0.5	20000.109	9.30E-06	0.48757932	0.010402525	0.000752601	5.04E-06	0.022215314	0.001006	1.7833007	0.01178	0.98631245	31.579371	0.003096494	99.196819	0	0	1				5.69E-08	93.8753	0.23773359	0.001543545	0
4494377.8		4881	0	0.5452	20000.109	9.40E-06	0.53112444	0.010247381	0.000949856	6.50E-06	0.026223863	0.001167	2.248886	0.01516	0.99986343	32.635253	0	100	0	0	1				6.89E-08	94.73811	0.28209318	0.001788386	0
4494636.14		4881	0	0.5449	20000.109	9.40E-06	0.53133353	0.010834363	0.0009558	5.53E-06	0.026233768	0.001167	2.2628052	0.01294	0.33855414	33.442399	0.001459383	99.617783	0	0	1				6.79E-08	97.90576	0.28231532	0.00179887	0
4494898.78		4881	0	0.5451	20000.109	9.30E-06	0.53159976	0.011068015	0.000945538	6.64E-06	0.026259693	0.001169	2.2388175	0.01555	0.86821005	33.62922	0.002822091	99.270983	0	0	1				6.71E-08	100.3272	0.28259831	0.001778664	0
4495374.63		4881	0	0.5943	20000.109	9.20E-06	0.57897162	0.011270558	0.001176543	7.16E-06	0.031517411	0.001684	2.7846278	0.01675	0.7749772	35.402591	0.000393512	99.900575	0	0	1				7.87E-08	100.8877	0.33520813	0.002032125	0
4495653.52		4881	0	0.5943	20000.109	9.20E-06	0.57885169	0.011316573	0.001179676	8.07E-06	0.031514566	0.001684	2.7919558	0.0188	1.1902028	34.996427	0	100	0	0	1				7.98E-08	106.2078	0.33506928	0.002037959	0
4495961.59		4881	0	0.5942	20000.109	9.40E-06	0.57896157	0.011643677	0.00117826	6.87E-06	0.031519533	0.001684	2.7886487	0.01607	0.67954442	36.370941	0.004594303	98.857159	0	0	1				7.75E-08	104.9893	0.3351965	0.002035127	0
4496456.77		4881	0	0.6473	20000.109	9.40E-06	0.63075263	0.012229302	0.001454232	8.74E-06	0.036462405	0.001929	3.439365	0.02044	0.77268864	39.335486	0.003500287	99.144627	0	0	1				8.82E-08	109.1128	0.39784888	0.00230555	0
4496800.33		4881	0	0.6471	20000.109	9.30E-06	0.63123833	0.012746354	0.001452246	4.73E-06	0.036504284	0.00192	3.4347592	0.01106	0.62169909	38.707502	0.004042649	98.997099	0	0	1				8.96E-08	118.0065	0.39846183	0.00230063	0
4497099.83		4881	0	0.6469	20000.109	9.30E-06	0.63119478	0.012564067	0.001464411	5.95E-06	0.036500757	0.001921	3.4632232	0.01392	0.55326866	38.725863	0.003456711	99.136922	0	0	1				9.02E-08	116.1225	0.39840685	0.002320062	0
4497618.28		4881	0	0.7052	20000.109	9.30E-06	0.68809709	0.012942804	0.001791348	8.95E-06	0.043077493	0.001214	4.2348328	0.02093	2.0903933	40.261512	0.001121929	99.722502	0	0	1				1.05E-07	116.1776	0.47347761	0.002603337	0
4497969.44		4881	0	0.7051	20000.109	9.20E-06	0.68821009	0.013531469	0.001771181	6.47E-06	0.043089721	0.001215	4.187653	0.01513	0.81898842	40.30027	0.001249973	99.694539	0	0	1				1.04E-07	120.7845	0.47363312	0.002573605	0
4498321.67		4881	0	0.7054	20000.109	9.30E-06	0.68801726	0.013492411	0.001777986	6.89E-06	0.043067018	0.001213	4.2035531	0.01613	1.7956322	40.727888	0.00264045	99.356691	0	0	1				1.04E-07	120.9008	0.47336776	0.002584216	0
4498857.19		4881	0	0.7692	20000.109	9.40E-06	0.75085651	0.014045079	0.002165373	8.78E-06	0.050984463	0.001726	5.1179565	0.02055	1.2695909	42.495649	0.002518011	99.395706	0	0	1				1.21E-07	122.1837	0.5637855	0.00288387	0
4499226.44		4881	0	0.7693	20000.109	9.40E-06	0.75123044	0.014557477	0.002164771	7.32E-06	0.051027843	0.001728	5.1165908	0.01712	0.96626212	42.40901	0.002527746	99.392785	0	0	1				1.21E-07	127.4869	0.56434718	0.002881633	0
4499554.66		4881	0	0.769	20000.109	9.40E-06	0.751187	0.014139018	0.002167205	9.03E-06	0.051040645	0.001729	5.122301	0.02105	1.551864	41.886659	0	100	0	0	1				1.22E-07	127.227	0.5642819	0.002885041	0
4500095.34		4881	0	0.838	20000.109	9.40E-06	0.81912103	0.015222162	0.002580047	9.59E-06	0.060234291	0.002049	6.097545	0.02243	0.83423661	44.32032	0.003060579	99.289113	0	0	1				1.39E-07	125.66	0.67095927	0.003149775	0
4500433.56		4881	0	0.838	20000.109	9.40E-06	0.81966437	0.015730969	0.002589986	9.50E-06	0.060313253	0.002051	6.1208804	0.02222	1.0531649	43.513431	0.001195067	99.717739	0	0	1				1.41E-07	132.961	0.67184967	0.003159813	0
4500768.28		4881	0	0.8385	20000.109	9.30E-06	0.81954428	0.015658853	0.002584629	9.11E-06	0.060298673	0.002051	6.1083297	0.02131	1.3415994	43.88487	0.002434775	99.429237	0	0	1				1.40E-07	130.5403	0.67165283	0.003153739	0
4501325.13		4881	0	0.9129	20000.109	9.20E-06	0.89356548	0.016744493	0.003004856	1.31E-05	0.079123055	0.002704	7.1104868	0.03063	1.4338677	45.211536	0.003111945	99.370697	0	0	1				1.58E-07	131.6546	0.79845927	0.003362771	0
4501716.28		4881	0	0.9132	20000.109	9.30E-06	0.89381623	0.017113366	0.003020494	1.17E-05	0.079156554	0.002703	7.1471113	0.02725	1.1955648	44.84928	0.002836081	99.419421	0	0	1				1.60E-07	135.6346	0.79890745	0.003379323	0
4502058.53		4881	0	0.9133	20000.109	9.40E-06	0.89364539	0.017020648	0.003031712	1.11E-05	0.079130267	0.002703	7.1733373	0.02599	0.94471192	44.891546	0.002152963	99.558525	0	0	1				1.60E-07	134.5478	0.79860208	0.003392523	0
4502625.8		4881	0	0.9953	20000.109	9.30E-06	0.97565242	0.018123286	0.003506207	8.77E-06	0.082858762	0.001442	8.2873833	0.02051	1.5418643	45.272349	0.001775672	99.602227	0	0	1				1.84E-07	134.6746	0.95189765	0.003593705	0
4503017.3		4881	0	0.9953	20000.109	9.30E-06	0.97577234	0.018611313	0.003494749	8.51E-06	0.082855147	0.001442	8.2605669	0.01992	1.3812238	45.419363	0.002561221	99.428965	0	0	1				1.83E-07	135.817	0.95213166	0.00358152	0
4503364.19		4881	0	0.995	20000.109	9.30E-06	0.9758487	0.018595622	0.003498622	7.85E-06	0.082853359	0.001441	8.2696282	0.01837	0.72715331	45.318044	0.002399953	99.463308	0	0	1				1.83E-07	136.2581	0.95228068	0.003585209	0
4503935.66		4881	0	1.0851	20000.109	9.20E-06	1.0651477	0.019877093	0.004025557	9.82E-06	0.083637799	0.001726	9.5034406	0.02297	1.3350378	45.389038	0.001819013	99.538533	0	0	1				2.10E-07	135.9541	1.1345395	0.003779342	0
4504328.11		4881	0	1.085	20000.109	9.20E-06	1.0652152	0.020213132	0.004005491	8.24E-06	0.083645234	0.001727	9.4564949	0.01927	1.159339	44.914741	0.001753528	99.552751	0	0	1				2.11E-07	136.1671	1.1346835	0.003760265	0
4504671.64		4881	0	1.0852	20000.109	9.40E-06	1.0649946	0.020100501	0.004033543	9.56E-06	0.083624423	0.001726	9.5221143	0.02237	0.59667584	45.439424	0.001910104	99.51483	0	0	1				2.11E-07	134.7442	1.1342135	0.003787383	0
4516005.7		4881	0	1.1836	20000.109	9.20E-06	1.1631821	0.022192125	0.004540662	1.45E-05	0.095634065	0.001902	10.720783	0.03385	0.82043807	45.317393	0.001334174	99.665917	0	0	1				2.37E-07	136.3183	1.3529927	0.003903655	0
4516464.25		4881	0	1.183	20000.109	9.20E-06	1.1626854	0.021988603	0.004541241	9.69E-06	0.095563545	0.001903	10.722068	0.02268	1.0753547	44.227757	0.001454423	99.626373	0	0	1				2.43E-07	135.9522	1.3518373	0.003905821	0
4516810.2		4881	0	1.1832	20000.109	9.30E-06	1.1623521	0.022012144	0.004511084	1.06E-05	0.095533164	0.001904	10.651471	0.02476	0.79040316	44.990404	0.002736443	99.311141	0	0	1				2.38E-07	132.6833	1.3510625	0.003880996	0
4517391.95		4881	0	1.2892	20000.109	9.40E-06	1.2677686	0.023889789	0.005048912	1.28E-05	0.11188866	0.002122	11.926342	0.02999	1.1970438	44.039374	0.001426002	99.650411	0	0	1				2.72E-07	134.9712	1.6072373	0.003982518	0
4520560.83		4881	0	1.2895	20000.109	9.30E-06	1.2678009	0.024074853	0.005027342	1.32E-05	0.11190385	0.002122	11.875884	0.03091	1.2713965	43.845674	0.001158069	99.716255	0	0	1				2.72E-07	132.1181	1.6073191	0.003965403	0
4520940.67		4881	0	1.2888	20000.109	9.30E-06	1.2676233	0.023786492	0.004997199	1.50E-05	0.11186934	0.002121	11.805316	0.0352	2.1143421	43.67744	0.003122957	99.232584	0	0	1				2.72E-07	131.537	1.6068688	0.00394218	0
4521508.88		4881	0	1.4047	20000.109	9.20E-06	1.3831798	0.025904233	0.00554346	1.54E-05	0.13313967	0.00278	13.104837	0.03606	1.5059508	42.248024	0.001647758	99.610711	0	0	1				3.11E-07	131.0323	1.9131864	0.004007765	0
4521875.38		4881	0	1.4051	20000.109	9.30E-06	1.3831212	0.025935418	0.005564853	1.34E-05	0.13315113	0.00278	13.154906	0.03129	1.2708642	42.784293	0.002266567	99.468545	0	0	1				3.09E-07	126.7441	1.9130244	0.004023402	0
4522204.91		4881	0	1.4049	20000.109	9.30E-06	1.3830825	0.026120483	0.005566887	1.39E-05	0.13313918	0.00278	13.159655	0.03252	0.67071632	42.901568	0.002488949	99.41745	0	0	1				3.09E-07	128.3529	1.9129172	0.004024986	0
4522765.59		4881	0	1.5319	20000.109	9.40E-06	1.5117427	0.030860202	0.005042299	7.60E-06	0.16105831	0.001778	11.960037	0.01778	1.2914023	34.744955	0.002864865	99.375654	0	0	1				3.46E-07	128.7047	2.2853661	0.003335421	0
4523036.19		4881	0	1.5317	20000.109	9.30E-06	1.5105525	0.028685931	0.005036863	8.11E-06	0.16088408	0.001779	11.947143	0.01897	0.52994972	34.714235	0.003240646	99.292572	0	0	1				3.47E-07	104.2349	2.2817687	0.003334451	0
4523342.25		4881	0	1.5323	20000.109	9.20E-06	1.510546	0.028695313	0.005055805	8.50E-06	0.16088496	0.001779	11.99147	0.01988	1.8835808	34.845116	0.003096652	99.324287	0	0	1				3.46E-07	104.1427	2.2817491	0.003347005	0
4523835.66		4881	0	1.6693	20000.109	9.20E-06	1.6482962	0.033273505	0.004795359	1.15E-05	0.19668781	0.002418	11.417827	0.02688	0.57080189	29.694609	0.002725567	99.455066	0	0	1				3.87E-07	104.5353	2.7168805	0.002909282	0
4524072.41		4881	0	1.6692	20000.109	9.20E-06	1.6476001	0.031270488	0.004785595	7.68E-06	0.19658906	0.002414	11.394881	0.01797	1.3020723	29.319647	0.002733821	99.447206	0	0	1				3.91E-07	89.08383	2.7145861	0.002904585	0
4524305.2		4881	0	1.6688	20000.109	9.30E-06	1.6473909	0.031148619	0.004780036	7.66E-06	0.19653695	0.002412	11.381821	0.01792	0.66915822	29.278183	0.002734751	99.446712	0	0	1				3.91E-07	87.95894	2.7138969	0.00290158	0
4524754.16		4881	0	1.8196	20000.109	9.40E-06	1.7983765	0.035247597	0.004775879	8.17E-06	0.24364961	0.00334	11.419207	0.01912	0.80368642	26.310151	0.002443023	99.5535	0	0	1				4.36E-07	87.83455	3.2341579	0.002655662	0
4524965.92		4881	0	1.8201	20000.109	9.20E-06	1.7975439	0.033993731	0.004783732	8.93E-06	0.2434529	0.00334	11.437386	0.02089	0.74571935	26.372521	0.002254012	99.588185	0	0	1				4.35E-07	78.93045	3.2311641	0.00266126	0
4525178.64		4881	0	1.8198	20000.109	9.30E-06	1.7977654	0.033986808	0.00479293	9.51E-06	0.24352784	0.00334	11.458984	0.02224	0.93682555	26.345149	0.002155861	99.60516	0	0	1				4.37E-07	79.11756	3.2319604	0.002666049	0
4525602.39		4881	0	1.9841	20000.109	9.30E-06	1.9617869	0.03828306	0.004861626	9.52E-06	0.30802725	0.003977	11.684233	0.02228	1.0259929	24.069452	0.002079751	99.662343	0	0	1				4.87E-07	79.03545	3.848608	0.002478162	0
4525798.73		4881	0	1.9843	20000.109	9.20E-06	1.9612444	0.037071515	0.0048804	1.10E-05	0.30791707	0.003975	11.728054	0.0257	0.97390117	24.170745	0.002891836	99.530035	0	0	1				4.87E-07	72.20835	3.8464795	0.00248842	0
4525995.86		4881	0	1.9838	20000.109	9.20E-06	1.961478	0.037453581	0.004839941	1.08E-05	0.30802753	0.003977	11.633489	0.02516	1.0997357	24.134121	0.002525555	99.592537	0	0	1				4.84E-07	72.51224	3.847396	0.002467497	0
4526402.8		4881	0	2.1617	20000.109	9.30E-06	2.1385098	0.041624241	0.004958486	1.13E-05	0.39671005	0.005411	11.999567	0.0265	1.2545406	22.079266	0.002608697	99.629203	0	0	1				5.45E-07	72.40236	4.5732243	0.002318664	0
4526584.98		4881	0	2.1617	20000.109	9.40E-06	2.1382595	0.040387947	0.004956905	1.10E-05	0.39673774	0.005411	11.995896	0.02563	1.1850485	22.167176	0.003396227	99.518889	0	0	1				5.44E-07	66.2378	4.5721536	0.002318196	0
4526768.84		4881	0	2.1618	20000.109	9.30E-06	2.1376414	0.039240336	0.004981518	1.33E-05	0.3965908	0.005411	12.053342	0.0307	0.60073574	21.91631	0	100	0	0	1				5.50E-07	66.50153	4.5695107	0.00233038	0
4527156.52		4881	0	2.3568	20000.109	9.30E-06	2.3364252	0.045290884	0.00506009	6.20E-06	0.51325138	0.002826	12.353861	0.0145	0.93977883	20.585431	0.00379376	99.535371	0	0	1				6.03E-07	65.74893	5.4588828	0.00216574	0
4527329.2		4881	0	2.3573	20000.109	9.30E-06	2.3339712	0.043245102	0.005084108	7.88E-06	0.51212105	0.002832	12.408934	0.01821	1.3194371	20.337438	0	100	0	0	1				6.10E-07	61.75629	5.4474215	0.002178308	0
4527498.86		4881	0	2.3568	20000.109	9.40E-06	2.3344712	0.044063554	0.005066776	6.84E-06	0.51215791	0.002832	12.368414	0.016	1.1960801	20.412372	0.002904862	99.6404	0	0	1				6.08E-07	61.01231	5.4497556	0.002170417	0
4527876.06		4881	0	2.5688	20000.109	9.30E-06	2.5446418	0.04958596	0.00509935	6.98E-06	0.66032374	0.003494	12.592803	0.01634	0.93730108	19.138473	0.004554927	99.519162	0	0	1				6.61E-07	61.23712	6.475202	0.002003956	0
4528037.44		4881	0	2.5693	20000.109	9.20E-06	2.5438735	0.048637118	0.005115151	8.15E-06	0.65992797	0.003492	12.62938	0.01907	1.0222717	19.141584	0.003512795	99.62833	0	0	1				6.62E-07	57.41542	6.4712921	0.002010772	0
4528198.64		4881	0	2.5688	20000.109	9.30E-06	2.5445324	0.048457706	0.005107901	7.79E-06	0.66041557	0.003494	12.612903	0.01823	1.0279224	19.022239	0.003295731	99.649847	0	0	1				6.65E-07	57.42475	6.4746449	0.002007403	0
4528565.52		4881	0	2.7991	20000.109	9.30E-06	2.7734973	0.053911327	0.0051804	8.58E-06	0.86603114	0.005123	12.988167	0.02008	0.67402871	17.890905	0.005127962	99.537842	0	0	1				7.29E-07	57.06672	7.6922874	0.001867822	0
4528718.53		4881	0	2.7999	20000.109	9.40E-06	2.7752238	0.052995824	0.005171994	8.85E-06	0.86811186	0.00515	12.970577	0.0207	0.82763957	17.859569	0.005720697	99.485114	0	0	1				7.30E-07	53.67272	7.7018673	0.001863631	0
4528870.36		4881	0	2.7998	20000.109	9.30E-06	2.7721798	0.052697102	0.005181316	7.89E-06	0.86497538	0.00511	12.989255	0.01846	1.0372549	17.776584	0.004557865	99.586228	0	0	1				7.33E-07	53.57871	7.6849811	0.001869041	0
4529160.78		4881	0	2.8004	20000.109	9.30E-06	2.7776004	0.053300778	0.005171197	8.02E-06	0.87042521	0.005179	12.971026	0.01878	0.63744756	17.820588	0.003862167	99.652913	0	0	1				7.30E-07	54.00193	7.7150639	0.00186175	0
4529311.88		4881	0	2.7997	20000.109	9.20E-06	2.7742851	0.05133611	0.005204425	1.01E-05	0.8676865	0.005144	13.046041	0.02316	1.3339904	17.676396	0	100	0	0	1				7.38E-07	53.46176	7.6966577	0.001875952	0
4529465.56		4881	0	2.8004	20000.109	9.20E-06	2.7753082	0.052785163	0.00518604	8.85E-06	0.86820408	0.005151	13.003537	0.02071	1.5607544	17.950284	0.004660176	99.582043	0	0	1				7.27E-07	53.02919	7.7023354	0.001868636	0
4529787.66		4881	0	2.8337	20000.109	9.40E-06	2.8110787	0.053440788	0.005184569	8.81E-06	0.90498552	0.005602	13.036878	0.02061	1.1207429	17.678699	0.006085411	99.465036	0	0	1				7.41E-07	53.85085	7.9021635	0.001844334	0
4529939.64		4881	0	2.8342	20000.109	9.30E-06	2.8072888	0.053706374	0.005199403	9.36E-06	0.90123486	0.005558	13.067837	0.02189	0.73996423	17.950723	0.008068436	99.296341	0	0	1				7.32E-07	53.0361	7.8808704	0.001852108	0
4530094.77		4881	0	2.8343	20000.109	9.40E-06	2.8090729	0.052214364	0.005192518	9.94E-06	0.90347299	0.005584	13.053966	0.02258	0.61432192	17.473839	0	100	0	0	1				7.47E-07	53.85217	7.8908904	0.001848481	0
4530413.67		4881	0	2.8688	20000.109	9.30E-06	2.8440063	0.053822747	0.005184527	8.36E-06	0.94011503	0.00598	13.071908	0.01955	1.016307	17.493341	0.005048148	99.566292	0	0	1				7.50E-07	52.42152	8.0883717	0.001822966	0
4530563.03		4881	0	2.8685	20000.109	9.30E-06	2.8490181	0.054203356	0.005187803	8.05E-06	0.94555268	0.006031	13.08501	0.01883	0.60859565	17.531185	0.005395036	99.539431	0	0	1				7.49E-07	52.48002	8.1169039	0.001820909	0
4530711.67		4881	0	2.8689	20000.109	9.30E-06	2.8497527	0.0545742	0.005176569	9.00E-06	0.94638265	0.006039	13.059554	0.02107	0.94461113	17.571228	0.005303009	99.549528	0	0	1				7.46E-07	52.59356	8.1210903	0.001816498	0
4531028.69		4881	0	2.903	20000.109	9.30E-06	2.8793217	0.054819005	0.005202156	8.76E-06	0.9786015	0.00629	13.151646	0.02049	0.83629175	17.38638	0.005691707	99.523051	0	0	1				7.60E-07	52.71368	8.2904936	0.00180673	0
4531177.34		4881	0	2.9032	20000.109	9.40E-06	2.8793685	0.054996366	0.005207256	9.35E-06	0.97866586	0.006291	13.163644	0.02188	1.2312619	17.402633	0.004954979	99.585036	0	0	1				7.59E-07	52.15914	8.290763	0.001808471	0
4531412.13		4881	0	2.903	20000.109	9.30E-06	2.8769156	0.054693801	0.005212319	9.23E-06	0.97591239	0.006273	13.17274	0.0216	1.3311461	17.323242	0.004002355	99.662377	0	0	1				7.63E-07	52.2079	8.2766434	0.001811774	0
4531728.91		4881	0	2.9376	20000.109	9.40E-06	2.9143873	0.055341562	0.005211932	9.07E-06	1.0177953	0.006466	13.213716	0.02123	1.028697	17.235755	0.004955339	99.594434	0	0	1				7.69E-07	51.96973	8.4936535	0.001788346	0
4531876.75		4881	0	2.9383	20000.109	9.40E-06	2.9147191	0.055488468	0.005215103	9.75E-06	1.0182559	0.006467	13.221596	0.02281	1.2710358	17.141487	0.002600529	99.786253	0	0	1				7.73E-07	51.70727	8.4955873	0.00178923	0
4532024.61		4881	0	2.9383	20000.109	9.40E-06	2.9120991	0.055309049	0.005215183	9.04E-06	1.0152872	0.006458	13.218815	0.02115	0.7817043	17.15152	0.004956277	99.591287	0	0	1				7.73E-07	51.42446	8.4803212	0.001790867	0
4532705.22		4881	0	3.0001	20000.109	9.40E-06	2.9718031	0.056629506	0.005244666	1.00E-05	1.0848349	0.006542	13.357354	0.02349	1.0727863	16.932813	0.004869132	99.613611	0	0	1				7.91E-07	50.46698	8.8316137	0.001764809	0
4532850.86		4881	0	3.0003	20000.109	9.30E-06	2.9753541	0.056695325	0.005238345	9.29E-06	1.0889427	0.00654	13.34667	0.02174	0.95447308	16.947207	0.005590492	99.558424	0	0	1				7.90E-07	50.79844	8.8527318	0.001760579	0
4532996.38		4881	0	2.9997	20000.109	9.30E-06	2.9742021	0.05672669	0.005230926	9.77E-06	1.087546	0.006541	13.327914	0.02287	1.1922897	16.902168	0.004077559	99.67737	0	0	1				7.91E-07	50.84162	8.8458783	0.001758766	0
4533317.14		4881	0	3.0571	20000.109	9.40E-06	3.035603	0.057674221	0.005239594	9.14E-06	1.1620046	0.006483	13.422654	0.02138	1.5790147	16.750852	0.004720859	99.642743	0	0	1				8.04E-07	50.7065	9.2148857	0.001726047	0
4533463.2		4881	0	3.0571	20000.109	9.20E-06	3.0312639	0.057704975	0.005236444	9.82E-06	1.1567618	0.006487	13.41004	0.02299	0.76127803	16.654217	0.004088442	99.68789	0	0	1				8.07E-07	50.25256	9.1885607	0.001727479	0
4533606.77		4881	0	3.0567	20000.109	9.30E-06	3.0353633	0.057724135	0.005236848	1.03E-05	1.1618823	0.006483	13.416105	0.02417	1.3996079	16.777325	0.007434195	99.437714	0	0	1				8.03E-07	49.96265	9.2134304	0.001725279	0
4533927.05		4881	0	3.1138	20000.109	9.30E-06	3.0880233	0.05873351	0.005259188	9.02E-06	1.2274232	0.006466	13.533923	0.0211	1.1742035	16.542684	0.00513085	99.62297	0	0	1				8.21E-07	50.33198	9.5358881	0.001703092	0
4534072.05		4881	0	3.1135	20000.109	9.30E-06	3.0878174	0.056941781	0.005275237	1.11E-05	1.2280145	0.006466	13.572069	0.02507	0.8286964	16.292281	0	100	0	0	1				8.33E-07	49.62805	9.5346164	0.001708403	0
4534215.67		4881	0	3.1139	20000.109	9.30E-06	3.0915508	0.056857033	0.005260828	1.11E-05	1.2327237	0.006469	13.543062	0.02522	0.67256056	16.346489	0	100	0	0	1				8.29E-07	48.87684	9.5576866	0.001701679	0
4534532.23		4881	0	3.1709	20000.109	9.30E-06	3.1472908	0.059588957	0.005259288	1.09E-05	1.3024157	0.006568	13.609149	0.02542	1.2192791	16.33121	0.005068456	99.640563	0	0	1				8.36E-07	49.03947	9.9054396	0.001671052	0
4534675.72		4881	0	3.1703	20000.109	9.40E-06	3.1466316	0.058089378	0.005269412	1.12E-05	1.302351	0.006568	13.632776	0.02536	1.2506393	16.119676	0	100	0	0	1				8.46E-07	48.99363	9.9012904	0.00167462	0
4534814.83		4881	0	3.1716	20000.109	9.40E-06	3.1456728	0.059519636	0.005274522	1.02E-05	1.30052	0.006566	13.642902	0.02386	1.203965	16.326552	0.006218317	99.5571	0	0	1				8.39E-07	48.35903	9.8952573	0.001676755	0
4535137.3		4881	0	3.2286	20000.109	9.40E-06	3.197456	0.060504721	0.005289599	1.04E-05	1.3665613	0.006675	13.744222	0.02433	0.91490361	16.10974	0.005809676	99.596233	0	0	1				8.56E-07	48.97966	10.223725	0.001654315	0
4535276.45		4881	0	3.2287	20000.109	9.30E-06	3.2059341	0.060945347	0.00525835	1.01E-05	1.3777843	0.006697	13.682322	0.02371	1.3755057	16.167396	0.007386206	99.493921	0	0	1				8.50E-07	48.32922	10.278013	0.001640193	0
4535417.52		4881	0	3.2291	20000.109	9.20E-06	3.1986497	0.060538026	0.0053019	9.85E-06	1.3682629	0.006679	13.774708	0.02304	0.79354897	16.110785	0.004982317	99.653581	0	0	1				8.57E-07	48.50219	10.23136	0.001657543	0
4535732.86		4881	0	3.2862	20000.109	9.30E-06	3.258502	0.061815147	0.005259995	9.99E-06	1.4472594	0.006857	13.755647	0.02337	0.8104015	15.935296	0.007150799	99.521961	0	0	1				8.67E-07	48.33235	10.617835	0.001614237	0
4535872.06		4881	0	3.2862	20000.109	9.20E-06	3.2564533	0.061869729	0.005268598	1.01E-05	1.4444831	0.006849	13.773003	0.02368	0.76980207	15.903231	0.006751822	99.546516	0	0	1				8.69E-07	47.80589	10.604488	0.001617895	0
4536011.02		4881	0	3.2858	20000.109	9.20E-06	3.2590165	0.062153084	0.005262189	9.65E-06	1.4479472	0.006859	13.761469	0.02259	0.61695741	15.895816	0.0052734	99.646875	0	0	1				8.68E-07	47.70969	10.621188	0.001614656	0
4536324.28		4881	0	3.3427	20000.109	9.40E-06	3.3174439	0.063245928	0.005258636	1.03E-05	1.5291304	0.007124	13.834338	0.02407	1.1811654	15.854392	0.006368628	99.590438	0	0	1				8.75E-07	47.68745	11.005434	0.001585147	0
4536463.58		4881	0	3.3423	20000.109	9.40E-06	3.3193416	0.063347916	0.005259597	1.09E-05	1.5318181	0.007135	13.839274	0.02539	1.1816778	15.785494	0.006121038	99.605161	0	0	1				8.79E-07	47.56318	11.018029	0.00158453	0
4536600.53		4881	0	3.3427	20000.109	9.40E-06	3.3167624	0.063417157	0.005248429	1.02E-05	1.5283104	0.007121	13.809634	0.02376	0.47437267	15.769281	0.00588169	99.620194	0	0	1				8.78E-07	47.35648	11.000913	0.001582395	0
4536911.84		4881	0	3.3987	20000.109	9.30E-06	3.3703297	0.064019149	0.005247982	9.86E-06	1.6071115	0.007512	13.887389	0.02308	1.1219837	15.52057	0.003806909	99.759983	0	0	1				8.96E-07	47.30784	11.359123	0.001557112	0
4537047.17		4881	0	3.4009	20000.109	9.20E-06	3.3669277	0.064036331	0.005252325	1.02E-05	1.6020437	0.00748	13.892483	0.02382	0.78686921	15.601958	0.00629312	99.603738	0	0	1				8.93E-07	46.56171	11.336202	0.001559976	0
4537183.56		4881	0	3.4009	20000.109	9.30E-06	3.3685181	0.064149141	0.005269763	1.07E-05	1.6044574	0.007495	13.935704	0.02501	0.76564815	15.618409	0.005510737	99.652982	0	0	1				8.95E-07	46.80587	11.346914	0.001564416	0
4537495.55		4881	0	3.457	20000.109	9.40E-06	3.4183702	0.065101428	0.005271832	1.00E-05	1.6814618	0.00807	14.017548	0.02339	0.79526766	15.526505	0.007914435	99.515843	0	0	1				9.06E-07	46.85523	11.685255	0.001542206	0
4537631.11		4881	0	3.4571	20000.109	9.30E-06	3.4210245	0.065354168	0.005259849	1.06E-05	1.6856717	0.008104	13.993718	0.02489	0.94817685	15.529307	0.007913065	99.517776	0	0	1				9.05E-07	46.57951	11.703408	0.001537507	0
4537766.39		4881	0	3.4571	20000.109	9.30E-06	3.4298963	0.065860847	0.005229474	9.85E-06	1.6997877	0.00822	13.936758	0.02306	0.82981123	15.579206	0.006911363	99.584802	0	0	1				8.97E-07	46.58792	11.764189	0.001524674	0
4538076.64		4881	0	3.5144	20000.109	9.20E-06	3.4763778	0.066377866	0.005251335	1.11E-05	1.7745767	0.008817	14.062701	0.02589	1.1211118	15.252431	0.004991922	99.702718	0	0	1				9.24E-07	46.73762	12.085203	0.001510577	0
4538211.45		4881	0	3.513	20000.109	9.30E-06	3.4772648	0.066194311	0.005236495	1.09E-05	1.7761512	0.008829	14.02955	0.02558	1.1389677	15.147587	0.002931776	99.824798	0	0	1				9.27E-07	45.75729	12.091371	0.001505924	0
4538345.2		4881	0	3.5138	20000.109	9.30E-06	3.4793365	0.063952898	0.005237076	1.40E-05	1.7808957	0.008864	14.035654	0.0316	1.0084793	15.051853	0	100	0	0	1				9.32E-07	45.44276	12.105782	0.001505194	0
4538650.75		4881	0	3.5707	20000.109	9.30E-06	3.5319842	0.064865198	0.005243644	1.35E-05	1.8684355	0.0094	14.138561	0.03018	0.67534634	14.955982	0	100	0	0	1				9.45E-07	45.15556	12.474912	0.001484617	0
4538784.08		4881	0	3.5715	20000.109	9.30E-06	3.536299	0.065362488	0.005236967	1.22E-05	1.8757872	0.009432	14.130289	0.02697	0.78696408	14.994793	0	100	0	0	1				9.42E-07	44.86795	12.505411	0.001480917	0
4538917.42		4881	0	3.571	20000.109	9.30E-06	3.5365145	0.066927432	0.005233859	1.20E-05	1.874944	0.009429	14.122173	0.02796	1.2212853	15.112782	0.005627007	99.676092	0	0	1				9.37E-07	44.98438	12.506935	0.001479948	0
4539224.45		4881	0	3.6293	20000.109	9.40E-06	3.5961887	0.068370621	0.005209555	1.10E-05	1.9767032	0.009602	14.167062	0.02574	0.85760791	15.058523	0.009938025	99.448839	0	0	1				9.45E-07	45.33834	12.932573	0.001448632	0
4539356.97		4881	0	3.6288	20000.109	9.30E-06	3.5904071	0.068376863	0.005254265	1.06E-05	1.9666364	0.009606	14.261617	0.02486	1.2064046	14.97167	0.004146624	99.766759	0	0	1				9.54E-07	45.17557	12.891023	0.001463418	0
4539488.75		4881	0	3.6295	20000.109	9.40E-06	3.5896752	0.068267064	0.005259667	1.15E-05	1.9655405	0.009606	14.273162	0.02698	0.70845803	15.12396	0.009874331	99.448684	0	0	1				9.48E-07	44.91501	12.885768	0.001465221	0
4539794.38		4881	0	3.6856	20000.109	9.20E-06	3.6486038	0.069706856	0.005205764	1.10E-05	2.0681079	0.009444	14.249596	0.02573	1.0214233	14.874456	0.010230352	99.444219	0	0	1				9.62E-07	45.37188	13.31231	0.001426783	0
4539925.34		4881	0	3.6862	20000.109	9.30E-06	3.6486999	0.069515782	0.005229264	1.20E-05	2.0682681	0.009444	14.304745	0.02808	0.50471283	14.916749	0.008163899	99.556577	0	0	1				9.62E-07	44.62337	13.313011	0.001433186	0
4540056.78		4881	0	3.6862	20000.109	9.40E-06	3.6497491	0.069387915	0.00524741	1.25E-05	2.0700289	0.009439	14.348968	0.02924	1.2687558	14.863925	0.004679177	99.744696	0	0	1				9.67E-07	44.75025	13.320669	0.001437745	0
4540365.23		4881	0	3.7427	20000.109	9.40E-06	3.7048256	0.070337117	0.005222755	1.13E-05	2.1686523	0.009038	14.389899	0.0264	0.63120938	14.813307	0.007575098	99.599761	0	0	1				9.74E-07	44.59177	13.725733	0.001409717	0
4540496.55		4881	0	3.7435	20000.109	9.20E-06	3.7076857	0.070955737	0.005207205	1.14E-05	2.1738955	0.00901	14.358755	0.02676	0.65064399	14.787906	0.008617167	99.545529	0	0	1				9.74E-07	44.43992	13.746933	0.001404435	0
4540627.69		4881	0	3.7429	20000.109	9.30E-06	3.705741	0.070557148	0.005235645	1.17E-05	2.1705671	0.009028	14.421977	0.02727	0.9826394	14.775695	0.005365853	99.715599	0	0	1				9.78E-07	44.36372	13.732516	0.001412847	0
4540931.89		4881	0	3.8	20000.109	9.30E-06	3.7586135	0.071372522	0.005230899	1.28E-05	2.2677089	0.008414	14.508013	0.0299	0.99976826	14.747327	0.012818258	99.339033	0	0	1				9.88E-07	44.32709	14.127175	0.00139171	0
4541062.58		4881	0	3.8002	20000.109	9.40E-06	3.7617206	0.069765134	0.005240974	1.34E-05	2.2747511	0.008362	14.538631	0.03011	0.82461173	14.535393	0	100	0	0	1				1.00E-06	44.24198	14.150542	0.001393239	0
4541192.63		4881	0	3.8002	20000.109	9.40E-06	3.7610881	0.069352845	0.00523625	1.47E-05	2.2735027	0.008371	14.526327	0.03334	1.1400206	14.515514	0	100	0	0	1				1.00E-06	43.60618	14.145783	0.001392217	0
4543900.05	Error: Warning: Current field is -0.02 Oe;																												
4543900.23	Error: but addenda was obtained at 20000.107 Oe.																												
4544409.08		4881	0	2.4004	-0.02	9.30E-06	2.4054388	0.044149659	0.012561883	1.61E-05	0.55878248	0.002897	29.953588	0.03777	0.67626904	48.636362	0.00340468	99.616252	0	0	1				6.18E-07	131.9575	5.786136	0.005222283	0
4544827.06		4881	0	2.4003	-0.02	9.40E-06	2.4024448	0.046112735	0.012595962	1.36E-05	0.55654689	0.002883	30.031099	0.03186	1.2891303	48.628768	0.003111429	99.647074	0	0	1				6.20E-07	145.9091	5.7717409	0.005242977	0
4545244.33		4881	0	2.3999	-0.02	9.30E-06	2.406093	0.046235133	0.012550643	1.49E-05	0.55900803	0.002899	29.927512	0.03495	0.94130328	48.661166	0.003209025	99.639017	0	0	1				6.17E-07	145.8863	5.7892834	0.005216192	0
4545822.92		4881	0	2.4481	-0.02	9.20E-06	2.4494466	0.045287314	0.012798482	1.49E-05	0.5892591	0.003123	30.537706	0.03464	0.94764876	47.753803	0	100	0	0	1				6.39E-07	145.9835	5.9997889	0.00522505	0
4546185.44		4881	0	2.4479	-0.02	9.40E-06	2.4498569	0.046571694	0.012869395	1.43E-05	0.58930178	0.003123	30.703687	0.0334	0.2643638	48.715441	0.003302502	99.638674	0	0	1				6.32E-07	143.2614	6.0017987	0.005253121	0
4546558.75		4881	0	2.4481	-0.02	9.30E-06	2.4507919	0.045768853	0.012809515	1.67E-05	0.59023405	0.003131	30.564499	0.03884	1.6973749	47.700197	0	100	0	0	1				6.41E-07	146.1463	6.0063811	0.005226684	0
4547127.38		4881	0	2.4973	-0.02	9.30E-06	2.497928	0.047015596	0.013128665	1.56E-05	0.62446488	0.003345	31.345541	0.0364	2.6889064	48.660271	0.003027713	99.680384	0	0	1				6.46E-07	143.1006	6.2396442	0.005255822	0
4547545.92		4881	0	2.4972	-0.02	9.30E-06	2.4998034	0.04804664	0.013104493	1.39E-05	0.62586606	0.003351	31.290379	0.03241	1.1958471	48.761428	0.00378343	99.602712	0	0	1				6.44E-07	145.9808	6.2490168	0.00524221	0
4547965.67		4881	0	2.4969	-0.02	9.20E-06	2.5013576	0.048262015	0.013097446	1.40E-05	0.62706118	0.003356	31.275086	0.0328	1.2707747	48.887454	0.003669585	99.61661	0	0	1				6.42E-07	146.2843	6.2567896	0.005236135	0
4548545.58		4881	0	2.5447	-0.02	9.30E-06	2.5477932	0.048599536	0.013359112	1.68E-05	0.66302568	0.003505	31.923347	0.03926	2.3582088	48.799995	0.003280863	99.668422	0	0	1				6.56E-07	146.6624	6.4912501	0.005243405	0
4548965.8		4881	0	2.545	-0.02	9.20E-06	2.5463334	0.049006638	0.01338927	1.67E-05	0.66188363	0.0035	31.992775	0.03906	1.9653746	48.712789	0.003289382	99.665685	0	0	1				6.59E-07	146.4	6.4838137	0.005258255	0
4549386.97		4881	0	2.5447	-0.02	9.30E-06	2.5468571	0.049124227	0.013352934	1.45E-05	0.66231511	0.003502	31.908181	0.03393	0.8002866	48.837994	0.003903441	99.605349	0	0	1				6.56E-07	146.1384	6.4864808	0.005242907	0
4549964.03		4881	0	2.5928	-0.02	9.30E-06	2.5969684	0.049446319	0.013652094	1.46E-05	0.70301524	0.003678	32.648915	0.0342	0.92955279	48.727843	0.002972161	99.709726	0	0	1				6.72E-07	146.514	6.7442448	0.005256935	0
4550334.38		4881	0	2.5928	-0.02	9.40E-06	2.5981873	0.049978091	0.013639827	1.66E-05	0.70406633	0.003683	32.621261	0.03889	0.36739171	48.790476	0.003444695	99.664638	0	0	1				6.71E-07	146.1835	6.7505771	0.005249747	0
4550753.64		4881	0	2.5927	-0.02	9.40E-06	2.5930611	0.049894985	0.013679426	1.67E-05	0.69979052	0.003663	32.709648	0.03904	1.0554291	48.783673	0.002904008	99.714926	0	0	1				6.72E-07	146.3714	6.7239658	0.005275397	0
4551332.28		4881	0	2.6405	-0.02	9.30E-06	2.639504	0.050253235	0.013965635	1.57E-05	0.739404	0.003874	33.418991	0.03668	1.1557726	48.877114	0.003360758	99.681268	0	0	1				6.86E-07	146.351	6.9669815	0.005291007	0
4551753.06		4881	0	2.6407	-0.02	9.20E-06	2.6448581	0.050904753	0.013919311	1.76E-05	0.74412244	0.003903	33.31531	0.04113	1.340258	48.697486	0.003137604	99.704148	0	0	1				6.86E-07	146.6313	6.9952745	0.005262782	0
4552125.25		4881	0	2.6408	-0.02	9.30E-06	2.6463073	0.050895264	0.013926219	1.57E-05	0.74541242	0.003911	33.332766	0.03677	0.85778691	48.822941	0.003752955	99.647267	0	0	1				6.85E-07	146.0925	7.0029425	0.00526251	0
4552701.73		4881	0	2.6902	-0.02	9.40E-06	2.6916314	0.051405574	0.014193466	1.81E-05	0.78652816	0.004213	33.999238	0.0424	2.583821	48.927297	0.004264973	99.612907	0	0	1				6.97E-07	146.4688	7.2448798	0.005273183	0
4553121.16		4881	0	2.6894	-0.02	9.30E-06	2.693098	0.051880653	0.014178571	1.55E-05	0.78789085	0.004225	33.965747	0.03619	1.5661072	48.648603	0.003003905	99.726811	0	0	1				7.00E-07	146.7819	7.2527769	0.005264781	0
4553492.28		4881	0	2.6898	-0.02	9.20E-06	2.692786	0.051749643	0.014184013	1.99E-05	0.78759553	0.004223	33.978187	0.04661	0.43571445	48.653575	0.003672809	99.665584	0	0	1				7.01E-07	145.9458	7.2510963	0.005267412	0
4554067.45		4881	0	2.7384	-0.02	9.30E-06	2.740495	0.051904846	0.014650369	2.36E-05	0.83332855	0.004715	35.115192	0.05524	4.0047485	49.08857	0.002173132	99.808588	0	0	1				7.17E-07	145.9607	7.5103129	0.005345884	0
4554442.05		4881	0	2.7383	-0.02	9.30E-06	2.7398653	0.052574925	0.01462694	2.58E-05	0.83269301	0.004708	35.059733	0.06043	0.97312205	48.863564	0.002080564	99.816057	0	0	1				7.19E-07	147.2657	7.5068618	0.005338562	0
4554862.84		4881	0	2.7382	-0.02	9.30E-06	2.7397601	0.052404004	0.014609323	2.30E-05	0.83262817	0.004707	35.018444	0.05383	2.2948329	48.993054	0.002288052	99.798432	0	0	1				7.16E-07	146.5907	7.5062855	0.005332337	0
4555443.14		4881	0	2.7865	-0.02	9.40E-06	2.7873549	0.050557266	0.015550408	4.56E-05	0.88112565	0.005313	37.269081	0.1066	8.7280263	50.440796	0	100	0	0	1				7.39E-07	146.9792	7.7693476	0.005578912	0
4555827.08		4881	0	2.7859	-0.02	9.40E-06	2.7852283	0.051461235	0.015615026	4.65E-05	0.87886875	0.005285	37.418029	0.1086	2.5178863	50.32433	0	100	0	0	1				7.44E-07	151.3224	7.7574965	0.005606372	0
4556209.02		4881	0	2.7862	-0.02	9.30E-06	2.7857362	0.051546565	0.015592433	4.69E-05	0.87944319	0.005292	37.365736	0.1096	2.0293309	50.469903	0	100	0	0	1				7.40E-07	150.973	7.760326	0.00559724	0
4556795.88		4881	0	2.8338	-0.02	9.30E-06	2.8339252	0.057678963	0.014971159	0.0001863	0.93040617	0.005883	35.962917	0.4359	345.6242	56.350398	0.048524666	96.470646	0	0	1				6.60E-07	151.4097	8.031132	0.005282835	0
4557276.86		4881	0	2.8347	-0.02	9.20E-06	2.8352511	0.061758345	0.014757011	0.0002	0.93151776	0.005895	35.462924	0.4681	296.3223	56.887637	0.062252776	95.542189	0	0	1				6.51E-07	169.0512	8.0386489	0.005204834	0
4557760.89		4881	0	2.8342	-0.02	9.30E-06	2.8369746	0.062158986	0.014736465	0.0002027	0.93336726	0.005913	35.416696	0.4744	295.9947	57.032231	0.063269825	95.493259	0	0	1				6.49E-07	170.6629	8.048425	0.00519443	0
4558700.14		4881	0	2.8829	-0.02	9.30E-06	2.8829054	0.059208615	0.009721051	8.58E-05	0.98338186	0.006319	23.730642	0.2006	101.85114	35.466471	0.03522173	97.444833	0	0	1				6.85E-07	99.83702	8.3111435	0.003371963	0
4558978.31		4881	0	2.8831	-0.02	9.40E-06	2.888468	0.060909014	0.009692316	8.79E-05	0.98919092	0.006351	23.66921	0.2056	24.055318	35.086395	0.03573136	97.400036	0	0	1				6.91E-07	106.3994	8.3432476	0.003355521	0
4559253.03		4881	0	2.8828	-0.02	9.30E-06	2.883967	0.060513376	0.009728978	8.83E-05	0.98427632	0.006324	23.750084	0.2065	18.079809	35.254151	0.03559744	97.401268	0	0	1				6.90E-07	105.2592	8.3172655	0.003373471	0
4559964.53		4881	0	2.9303	-0.02	9.30E-06	2.9308536	0.058991445	0.007832877	4.20E-05	1.0370811	0.00651	19.366014	0.09826	17.944786	26.923702	0.022896739	98.299055	0	0	1				7.30E-07	80.25868	8.5899026	0.002672558	0
4560180.03		4881	0	2.9308	-0.02	9.30E-06	2.9294068	0.059192578	0.007832481	4.28E-05	1.0353939	0.006507	19.3634	0.1001	10.453437	26.798043	0.022140389	98.34582	0	0	1				7.33E-07	80.77111	8.5814243	0.002673743	0
4560394.83		4881	0	2.9313	-0.02	9.20E-06	2.9324674	0.05944405	0.007793842	3.97E-05	1.038974	0.006514	19.276564	0.09295	6.6983917	26.892107	0.024022592	98.223109	0	0	1				7.28E-07	80.39413	8.5993648	0.002657776	0
4560794.38		4881	0	2.9793	-0.02	9.30E-06	2.982702	0.06343833	0.006695835	3.16E-05	1.0970989	0.006537	16.765353	0.07405	6.6505792	22.534953	0.021711827	98.405457	0	0	1				7.55E-07	80.67632	8.8965112	0.002244889	0
4560979.42		4881	0	2.9788	-0.02	9.30E-06	2.9818124	0.059374755	0.006702357	2.82E-05	1.0969109	0.006537	16.780425	0.06596	10.092034	22.473854	0.017376726	98.72218	0	0	1				7.55E-07	67.60486	8.8912051	0.002247746	0
4561163.78		4881	0	2.9792	-0.02	9.30E-06	2.9780858	0.059625934	0.006709442	3.05E-05	1.0925714	0.006539	16.792667	0.0713	18.049774	22.732618	0.020201633	98.522657	0	0	1				7.48E-07	67.42156	8.8689949	0.002252938	0
4561529.77		4881	0	3.0283	-0.02	9.30E-06	3.0298033	0.063594959	0.005903966	2.41E-05	1.1545303	0.006489	14.969811	0.05646	12.172934	19.766044	0.020452733	98.530926	0	0	1				7.67E-07	68.19785	9.179708	0.00194863	0
4561696.98		4881	0	3.0287	-0.02	9.20E-06	3.027343	0.060030944	0.005914254	2.02E-05	1.1521003	0.006491	14.991456	0.04716	3.110756	19.511732	0.016355616	98.808387	0	0	1				7.76E-07	59.29813	9.1648055	0.001953612	0
4561860.56		4881	0	3.0276	-0.02	9.30E-06	3.0292292	0.060180412	0.005891175	2.14E-05	1.1546422	0.006489	14.939991	0.05009	5.7906067	19.699334	0.019322952	98.610853	0	0	1				7.68E-07	58.5352	9.1762295	0.001944777	0
4562204.63		4881	0	3.0763	-0.02	9.20E-06	3.0784107	0.063490719	0.005286691	2.25E-05	1.2149428	0.006461	13.585798	0.05262	8.0750646	17.494384	0.020028354	98.580706	0	0	1				7.86E-07	59.098	9.4766127	0.001717344	0
4562354.47		4881	0	3.0769	-0.02	9.30E-06	3.0806061	0.061084902	0.005252314	1.67E-05	1.2184138	0.006462	13.508829	0.03913	3.9516806	17.328325	0.017187847	98.781439	0	0	1				7.88E-07	52.48315	9.4901338	0.001704961	0
4562503.8		4881	0	3.0761	-0.02	9.30E-06	3.078917	0.060721535	0.005290563	1.90E-05	1.2163461	0.006461	13.596262	0.04434	6.6288091	17.508206	0.017524858	98.761035	0	0	1				7.85E-07	51.98498	9.4797299	0.001718319	0
4562829.33		4881	0	3.1233	-0.02	9.30E-06	3.1263397	0.06380098	0.004810039	1.54E-05	1.2755744	0.006528	12.531066	0.0361	4.3308734	15.787727	0.017844418	98.754196	0	0	1				8.02E-07	52.52462	9.7739999	0.001538553	0
4562966.89		4881	0	3.1242	-0.02	9.20E-06	3.1258107	0.061613828	0.004799922	1.74E-05	1.2755662	0.006528	12.507384	0.04073	3.4050533	15.806818	0.019100797	98.669621	0	0	1				8.00E-07	47.36318	9.7706926	0.001535577	0
4563104.52		4881	0	3.1238	-0.02	9.40E-06	3.1220682	0.061482265	0.004811358	1.56E-05	1.2707453	0.006521	12.529322	0.03651	2.5115113	15.692809	0.015548678	98.905386	0	0	1				8.06E-07	47.42045	9.7473101	0.00154108	0
4563414.44		4881	0	3.1726	-0.02	9.30E-06	3.1709912	0.064145564	0.004396615	1.35E-05	1.3323672	0.006616	11.620447	0.03168	2.644462	14.356483	0.017517339	98.789595	0	0	1				8.17E-07	47.07843	10.055185	0.001386511	0
4563541.44		4881	0	3.1725	-0.02	9.20E-06	3.169108	0.062032756	0.004412707	1.38E-05	1.3305391	0.006613	11.656274	0.03221	3.1885514	14.402041	0.016194715	98.880764	0	0	1				8.17E-07	43.06945	10.043245	0.001392413	0
4563670.39		4881	0	3.1719	-0.02	9.20E-06	3.1751274	0.062365037	0.004389556	1.17E-05	1.3381991	0.006625	11.609759	0.0273	2.7138837	14.308065	0.01477213	98.981689	0	0	1				8.18E-07	43.20612	10.081434	0.001382482	0
4563970.72		4881	0	3.2214	-0.02	9.40E-06	3.2204354	0.06495894	0.00404094	1.13E-05	1.3964534	0.006735	10.852253	0.02654	1.8708092	13.242592	0.019483869	98.678585	0	0	1				8.28E-07	42.92419	10.371204	0.001254781	0
4564090.5		4881	0	3.2208	-0.02	9.40E-06	3.2188766	0.062977638	0.004055338	1.13E-05	1.3947523	0.006731	10.884244	0.02641	2.0447526	13.128251	0.013364388	99.084434	0	0	1				8.35E-07	39.72778	10.361166	0.001259861	0
4564210.67		4881	0	3.2209	-0.02	9.30E-06	3.2253449	0.063063544	0.004047344	1.11E-05	1.4033441	0.00675	10.874129	0.02589	1.1868726	13.259136	0.015418286	98.959781	0	0	1				8.27E-07	39.38475	10.40285	0.001254856	0
4564500.34		4881	0	3.2687	-0.02	9.40E-06	3.2682195	0.065773642	0.003753536	1.09E-05	1.4602192	0.006893	10.243492	0.02538	2.1248238	12.237081	0.015876062	98.933167	0	0	1				8.44E-07	39.77741	10.681259	0.001148496	0
4564613.39		4881	0	3.268	-0.02	9.40E-06	3.2679646	0.063994352	0.003751943	1.06E-05	1.4604449	0.006894	10.239991	0.02483	1.7803302	12.247272	0.016975641	98.8603	0	0	1				8.43E-07	36.71124	10.679593	0.001148098	0
4564725.31		4881	0	3.2688	-0.02	9.20E-06	3.2667072	0.063876731	0.00376025	1.21E-05	1.4586895	0.006889	10.257674	0.02839	2.3368502	12.225142	0.01481003	99.002128	0	0	1				8.45E-07	36.74182	10.671376	0.001151083	0
4565007.53		4881	0	3.3172	-0.02	9.20E-06	3.3133923	0.066426773	0.003494341	9.48E-06	1.5233075	0.007102	9.7000658	0.02217	1.3306878	11.490584	0.018131445	98.80188	0	0	1				8.51E-07	36.67543	10.978569	0.001054611	0
4565114.67		4881	0	3.3168	-0.02	9.40E-06	3.313421	0.065033999	0.003498767	1.01E-05	1.5237955	0.007104	9.7109091	0.02354	2.8008732	11.506407	0.020195555	98.665654	0	0	1				8.52E-07	34.47175	10.978759	0.001055938	0
4565221.52		4881	0	3.317	-0.02	9.40E-06	3.3143635	0.065000596	0.003494472	1.11E-05	1.5249938	0.007109	9.7020571	0.02592	2.077846	11.389361	0.015125911	98.993183	0	0	1				8.58E-07	34.51922	10.985006	0.001054342	0
4565497.44		4881	0	3.3656	-0.02	9.30E-06	3.3637162	0.066871276	0.003261248	8.12E-06	1.5969837	0.007448	9.2283048	0.019	2.1092159	10.7442	0.016083486	98.94984	0	0	1				8.65E-07	34.16808	11.314587	0.000969537	0
4565599.25		4881	0	3.3662	-0.02	9.30E-06	3.3574663	0.065690803	0.003276896	1.02E-05	1.5880772	0.007395	9.2560133	0.02395	2.5189801	10.732785	0.014342557	99.056456	0	0	1				8.68E-07	32.2326	11.27258	0.000976003	0
4565702.17		4881	0	3.3659	-0.02	9.20E-06	3.3595949	0.065923006	0.003269391	9.87E-06	1.5914137	0.007414	9.2417879	0.02309	1.2185863	10.800573	0.020618162	98.653945	0	0	1				8.64E-07	32.19836	11.286878	0.00097315	0
4565973.22		4881	0	3.4141	-0.02	9.20E-06	3.4103852	0.068002309	0.003065941	8.55E-06	1.668803	0.007968	8.8431043	0.02001	1.1584207	10.151265	0.017496103	98.870123	0	0	1				8.78E-07	32.40172	11.630727	0.000899001	0
4566070.92		4881	0	3.4142	-0.02	9.30E-06	3.4095814	0.066344942	0.003082628	8.82E-06	1.6680087	0.007962	8.8813575	0.02064	1.6570336	10.143894	0.013326528	99.136321	0	0	1				8.81E-07	30.4538	11.625246	0.000904107	0
4566169.05		4881	0	3.4141	-0.02	9.30E-06	3.4059352	0.066491658	0.003083076	8.97E-06	1.6623691	0.007917	8.876766	0.021	1.5201467	10.159875	0.015518858	98.993107	0	0	1				8.80E-07	30.43168	11.600394	0.000905207	0
4566436.2		4881	0	3.4624	-0.02	9.20E-06	3.4582162	0.068576332	0.002905798	8.25E-06	1.7452414	0.00859	8.5448079	0.01931	1.3051188	9.6821817	0.017319655	98.896069	0	0	1				8.89E-07	30.47962	11.959259	0.000840259	0
4566531.13		4881	0	3.4621	-0.02	9.40E-06	3.4556102	0.067689397	0.002903733	8.42E-06	1.7411841	0.008557	8.5359191	0.01969	1.199509	9.6077122	0.013495435	99.132887	0	0	1				8.93E-07	29.04655	11.941242	0.000840295	0
4566625.58		4881	0	3.4625	-0.02	9.30E-06	3.4577472	0.066744302	0.002895397	7.60E-06	1.7443389	0.008583	8.5195682	0.01779	0.91308323	9.4420996	0.011136919	99.274187	0	0	1				9.06E-07	28.82314	11.956016	0.000837365	0
4566884.58		4881	0	3.5097	-0.02	9.20E-06	3.50214	0.068786636	0.002736411	8.22E-06	1.8173191	0.009117	8.2205207	0.01922	1.1465513	9.1160724	0.0112659	99.281201	0	0	1				9.06E-07	28.3263	12.264984	0.000781354	0
4566976.58		4881	0	3.5102	-0.02	9.30E-06	3.4979691	0.067859751	0.002758219	8.83E-06	1.8108258	0.009075	8.265059	0.02066	1.4529052	9.1812005	0.013035327	99.168614	0	0	1				9.05E-07	27.34822	12.235788	0.00078852	0
4567068.89		4881	0	3.5103	-0.02	9.20E-06	3.5014533	0.067963606	0.002753659	9.04E-06	1.8166092	0.009112	8.2601704	0.02116	1.2095083	9.1485874	0.015692075	98.997958	0	0	1				9.08E-07	27.5436	12.260175	0.000786433	0
4567326.23		4881	0	3.5591	-0.02	9.30E-06	3.5524854	0.069950933	0.002596854	8.19E-06	1.9018593	0.009527	7.978498	0.01916	0.43818242	8.703941	0.015006941	99.048827	0	0	1				9.22E-07	27.44576	12.620153	0.000730996	0
4567415.72		4881	0	3.5588	-0.02	9.30E-06	3.5462253	0.069212045	0.002591165	8.40E-06	1.8916848	0.009494	7.9550108	0.01965	1.3577492	8.7584634	0.013889382	99.123784	0	0	1				9.13E-07	26.11182	12.575714	0.000730683	0
4567504.06		4881	0	3.5596	-0.02	9.30E-06	3.5549326	0.068861255	0.002582009	8.50E-06	1.9061928	0.009539	7.9480945	0.01989	0.6994396	8.6426579	0.010267583	99.347685	0	0	1				9.23E-07	26.27539	12.637546	0.000726317	0
4567756.67		4881	0	3.6071	-0.02	9.40E-06	3.5964698	0.06993367	0.002497883	7.65E-06	1.9770329	0.009601	7.8220794	0.0179	1.0080264	8.43364	0.014022824	99.118692	0	0	1				9.32E-07	25.92797	12.934595	0.000694538	0
4567843.42		4881	0	3.6066	-0.02	9.20E-06	3.5963994	0.069972019	0.00246617	7.76E-06	1.9772751	0.009601	7.7481118	0.01817	1.105734	8.358679	0.013205649	99.168008	0	0	1				9.31E-07	25.30092	12.934089	0.000685733	0
4567929.23		4881	0	3.6073	-0.02	9.30E-06	3.5969256	0.069543835	0.002480946	8.00E-06	1.9781773	0.009601	7.7835915	0.01871	1.2218463	8.4025954	0.012049446	99.242821	0	0	1				9.30E-07	25.07604	12.937874	0.000689741	0
4568177.38		4881	0	3.655	-0.02	9.30E-06	3.6450825	0.071387683	0.002364159	7.46E-06	2.061722	0.009462	7.593854	0.01746	1.1324373	8.0413728	0.008431006	99.469728	0	0	1				9.47E-07	25.20779	13.286627	0.000648589	0
4568259.63		4881	0	3.6548	-0.02	9.20E-06	3.6478593	0.070521405	0.002348787	8.25E-06	2.0672928	0.009447	7.5634539	0.0193	1.7692435	8.1168658	0.017269107	98.92812	0	0	1				9.37E-07	24.12412	13.306878	0.000643881	0
4568343.41		4881	0	3.6546	-0.02	9.40E-06	3.6435236	0.070664551	0.002373537	7.97E-06	2.0597339	0.009468	7.6138104	0.01865	1.4836429	8.151442	0.01840047	98.855216	0	0	1				9.40E-07	24.3506	13.275264	0.00065144	0
4568593.36		4881	0	3.7027	-0.02	9.30E-06	3.6919587	0.072467049	0.002260621	8.21E-06	2.1457514	0.009151	7.4356034	0.01922	1.5228727	7.8614148	0.017111968	98.939555	0	0	1				9.51E-07	24.45433	13.630559	0.000612309	0
4568676.11		4881	0	3.7029	-0.02	9.30E-06	3.6934931	0.071717136	0.00225568	7.38E-06	2.1483758	0.009139	7.4266675	0.01727	0.83523395	7.8519123	0.014563845	99.097719	0	0	1				9.50E-07	23.58424	13.641891	0.000610717	0
4568760.7		4881	0	3.7032	-0.02	9.40E-06	3.6945009	0.06938213	0.002269078	1.10E-05	2.1511787	0.009125	7.460821	0.02413	1.0039596	7.6825329	0	100	0	0	1				9.71E-07	23.55574	13.649337	0.000614177	0
4569006.75		4881	0	3.7524	-0.02	9.20E-06	3.741959	0.072110963	0.002176233	7.07E-06	2.2369668	0.00863	7.3293525	0.01655	0.78499978	7.5941241	0.018746549	98.836288	0	0	1				9.71E-07	23.0476	14.002257	0.000581576	0
4569087.8		4881	0	3.752	-0.02	9.30E-06	3.7385909	0.072412555	0.002159939	7.37E-06	2.2307836	0.008671	7.2850405	0.01724	0.97142348	7.5868278	0.018499864	98.852648	0	0	1				9.66E-07	22.78237	13.977062	0.000577741	0
4569168.14		4881	0	3.7522	-0.02	9.30E-06	3.7433641	0.072311512	0.002161548	7.50E-06	2.2394237	0.008614	7.2974464	0.01754	0.89461919	7.5571821	0.013455322	99.163184	0	0	1				9.70E-07	22.76048	14.012775	0.000577435	0
4569412.72		4881	0	3.7999	-0.02	9.30E-06	3.7886346	0.073425082	0.002079008	6.69E-06	2.323588	0.007971	7.1884665	0.01566	0.80890565	7.3671514	0.017017346	98.944961	0	0	1				9.81E-07	22.67155	14.353752	0.000548749	0
4569490.25		4881	0	3.801	-0.02	9.30E-06	3.7902359	0.073249799	0.002071604	7.27E-06	2.3270264	0.007942	7.174579	0.01701	1.2245258	7.3318069	0.011104111	99.3093	0	0	1				9.82E-07	22.10145	14.365888	0.000546563	0
4569569		4881	0	3.8	-0.02	9.30E-06	3.792547	0.07313957	0.002051855	6.83E-06	2.3311199	0.007907	7.1324598	0.01598	1.4322323	7.2355026	0.007294769	99.541951	0	0	1				9.88E-07	21.99542	14.383413	0.000541023	0
4581125.44	Error: Warning: Current field is -0.017 Oe;																												
4581125.78	Error: but addenda was obtained at 20000.107 Oe.																												
4592842.78		4881	0	2.6002	-0.017	9.40E-06	2.5998791	0.042937158	0.01368604	2.00E-05	0.7061364	0.003693	32.73147	0.0469	0.82981511	48.543274	0.003278801	99.679069	0	0	1				6.76E-07	108.5325	6.7593716	0.005264106	0
4593260.3		4881	0	2.6003	-0.017	9.30E-06	2.6044884	0.050063567	0.013695369	1.73E-05	0.7093857	0.003709	32.75655	0.04046	1.4703697	48.865403	0.003276817	99.682577	0	0	1				6.72E-07	145.6298	6.7833597	0.005258372	0
4593821.69		4881	0	2.6206	-0.017	9.20E-06	2.6234046	0.050034025	0.013836589	1.51E-05	0.72544316	0.003793	33.103061	0.03541	1.1614032	48.964152	0.00383276	99.633581	0	0	1				6.78E-07	146.5962	6.8822516	0.005274287	0
4594242.66		4881	0	2.621	-0.017	9.40E-06	2.6261317	0.050701867	0.013806931	1.80E-05	0.72779753	0.003806	33.036017	0.04208	1.6709846	48.990934	0.003856931	99.633364	0	0	1				6.77E-07	146.8925	6.8965675	0.005257517	0
4594855.58		4881	0	2.642	-0.017	9.20E-06	2.6430762	0.050601269	0.013950689	1.74E-05	0.74253192	0.003893	33.387144	0.04065	1.7237831	48.928441	0.004041811	99.618794	0	0	1				6.85E-07	146.9728	6.9858517	0.005278202	0
4595276.34		4881	0	2.642	-0.017	9.30E-06	2.6453644	0.051034654	0.013929537	1.70E-05	0.74459704	0.003906	33.339713	0.03981	0.30209175	48.921644	0.003682374	99.654181	0	0	1				6.84E-07	146.7853	6.9979528	0.00526564	0
4595839.41		4881	0	2.6633	-0.017	9.30E-06	2.6645938	0.050958249	0.014047949	1.69E-05	0.76172159	0.00402	33.633921	0.03961	1.4703793	48.83751	0.003635771	99.662628	0	0	1				6.91E-07	146.7649	7.1000602	0.005272079	0
4596211.02		4881	0	2.663	-0.017	9.30E-06	2.6649888	0.051329963	0.014053067	1.65E-05	0.76209225	0.004023	33.64627	0.03863	0.4776458	48.778209	0.00346632	99.678043	0	0	1				6.92E-07	146.5125	7.1021654	0.005273218	0
4596768.61		4881	0	2.6839	-0.017	9.30E-06	2.6855219	0.051258354	0.014135544	1.68E-05	0.78083458	0.004165	33.858008	0.03928	1.6344127	48.756618	0.003930584	99.641013	0	0	1				6.97E-07	146.3346	7.2120278	0.005263612	0
4597187.55		4881	0	2.6848	-0.017	9.20E-06	2.6832844	0.051914972	0.014135743	1.31E-05	0.77880721	0.004149	33.856447	0.03053	0.65812027	48.753263	0.004278211	99.608143	0	0	1				6.97E-07	146.2699	7.2000153	0.005268075	0
4597748.55		4881	0	2.7055	-0.017	9.30E-06	2.7107	0.051745982	0.014261346	1.92E-05	0.80448075	0.004387	34.17603	0.04488	2.6280768	48.76383	0.003593706	99.678438	0	0	1				7.03E-07	146.2598	7.3478946	0.00526113	0
4598167.14		4881	0	2.7051	-0.017	9.30E-06	2.7095695	0.052117936	0.014283574	1.92E-05	0.80340928	0.004376	34.226974	0.04496	1.9623905	48.609935	0.002808558	99.74736	0	0	1				7.06E-07	146.2915	7.3417668	0.005271529	0
4598727.27		4881	0	2.7263	-0.017	9.40E-06	2.7283721	0.051973988	0.014515853	2.11E-05	0.82150948	0.004575	34.788606	0.04947	2.6021335	49.154586	0.003029744	99.73202	0	0	1				7.10E-07	145.8298	7.4440141	0.005320335	0
4599150.13		4881	0	2.7259	-0.017	9.30E-06	2.7333442	0.052481089	0.014395827	2.45E-05	0.82625606	0.004631	34.512491	0.05727	3.1724099	48.350021	0.001869758	99.83426	0	0	1				7.15E-07	147.4638	7.4711707	0.005266745	0
4599709.95		4881	0	2.7473	-0.017	9.40E-06	2.7491695	0.050558152	0.014720178	2.64E-05	0.8424926	0.004828	35.287708	0.06162	2.9030392	48.874783	0	100	0	0	1				7.22E-07	145.0501	7.5579331	0.005354409	0
4600081.95		4881	0	2.7475	-0.017	9.40E-06	2.7503878	0.050956259	0.014725523	2.92E-05	0.84366321	0.004842	35.301387	0.06816	1.7269568	48.505197	0	100	0	0	1				7.28E-07	146.6243	7.5646333	0.005353981	0
4600643.5		4881	0	2.768	-0.017	9.20E-06	2.7684116	0.050514897	0.015116373	3.77E-05	0.86179399	0.00507	36.234107	0.08795	4.1405955	49.401804	0	100	0	0	1				7.33E-07	145.5156	7.6641029	0.005460306	0
4601070.31		4881	0	2.7681	-0.017	9.30E-06	2.7700728	0.051141798	0.015132293	3.16E-05	0.86340851	0.00509	36.272975	0.07365	3.4480954	49.270949	0	100	0	0	1				7.36E-07	148.2054	7.6733034	0.005462778	0
4601635.13		4881	0	2.7889	-0.017	9.30E-06	2.7920799	0.050602297	0.015617211	4.79E-05	0.88600786	0.005373	37.430282	0.112	9.0700516	50.589954	0	100	0	0	1				7.40E-07	147.8128	7.7957103	0.005593397	0
4602070.7		4881	0	2.789	-0.017	9.40E-06	2.7896126	0.051529666	0.015673503	4.60E-05	0.88341311	0.005341	37.559411	0.1076	4.8223328	50.688782	0	100	0	0	1				7.41E-07	151.7699	7.7819383	0.005618523	0
4602650.05		4881	0	2.811	-0.017	9.20E-06	2.814498	0.050537645	0.016363781	6.30E-05	0.90934165	0.005653	39.200589	0.1474	14.003173	52.268481	0	100	0	0	1				7.50E-07	152.0663	7.9213991	0.005814103	0
4603099.44		4881	0	2.8112	-0.017	9.30E-06	2.8125766	0.051834501	0.016415633	6.35E-05	0.90730943	0.005629	39.319891	0.1484	15.09807	52.428466	0	100	0	0	1				7.50E-07	156.8054	7.9105872	0.005836511	0
4603689.98		4881	0	2.8316	-0.017	9.20E-06	2.8306458	0.057593837	0.015230255	0.000171	0.92664209	0.005844	36.565439	0.4	189.71613	56.39742	0.046453674	96.55804	0	0	1				6.70E-07	157.2854	8.0125557	0.005380488	0
4604171.88		4881	0	2.8329	-0.017	9.30E-06	2.8347586	0.060961007	0.01500797	0.0001849	0.93092296	0.005888	36.049573	0.4326	248.28276	56.958963	0.056859735	95.878269	0	0	1				6.59E-07	169.1923	8.0358565	0.005294267	0
4604802.42		4881	0	2.8526	-0.017	9.30E-06	2.8562966	0.067128969	0.012310451	0.0002216	0.95335952	0.006101	29.759816	0.5184	516.57827	48.523514	0.072939572	94.925119	0	0	1				6.44E-07	170.8769	8.1584302	0.004309935	0
4605221.06		4881	0	2.853	-0.017	9.30E-06	2.8568089	0.064329628	0.012304369	0.000197	0.95504085	0.006116	29.747264	0.4609	316.77037	49.382931	0.069705848	95.259401	0	0	1				6.31E-07	145.5705	8.1613571	0.004307033	0
4606116.95		4881	0	2.8741	-0.017	9.20E-06	2.8771063	0.06096866	0.010283254	0.0001083	0.97694059	0.00628	25.039755	0.2534	131.41069	38.338175	0.042039848	96.998484	0	0	1				6.72E-07	111.8801	8.2777405	0.003574166	0
4606452.64		4881	0	2.874	-0.017	9.20E-06	2.8764181	0.061457328	0.010265949	0.0001067	0.97590976	0.006273	24.998231	0.2496	85.274823	37.677098	0.040902117	97.031058	0	0	1				6.82E-07	115.0145	8.2737808	0.003569005	0
4606923.88		4881	0	2.8945	-0.017	9.30E-06	2.8938054	0.062959605	0.00911133	7.97E-05	0.9942979	0.006377	22.314809	0.1866	60.698519	32.224843	0.033202052	97.529067	0	0	1				7.09E-07	113.0313	8.3741095	0.003148563	0
4607177.69		4881	0	2.8948	-0.017	9.30E-06	2.895933	0.059943096	0.00911035	7.05E-05	0.99748315	0.006391	22.315703	0.165	19.656725	32.317172	0.030469322	97.749988	0	0	1				7.05E-07	96.67453	8.3864277	0.003145912	0
4607606.78		4881	0	2.916	-0.017	9.20E-06	2.9210772	0.061838605	0.008248607	5.41E-05	1.0252333	0.006486	20.326975	0.1265	55.99865	28.726145	0.027429897	97.973021	0	0	1				7.21E-07	96.95152	8.532692	0.002823824	0
4607835		4881	0	2.9153	-0.017	9.30E-06	2.9158391	0.059303999	0.008294401	5.19E-05	1.0199743	0.006472	20.428872	0.1214	12.921565	28.892028	0.027336807	97.972014	0	0	1				7.20E-07	86.17844	8.5021178	0.002844602	0
4608235.22		4881	0	2.9369	-0.017	9.30E-06	2.94238	0.061659459	0.007592244	4.26E-05	1.0499135	0.006528	18.815764	0.09958	28.950753	26.159368	0.023964222	98.236742	0	0	1				7.31E-07	86.67608	8.6576001	0.002580307	0
4608445.38		4881	0	2.9372	-0.017	9.30E-06	2.943556	0.059196698	0.007626566	3.92E-05	1.0517823	0.00653	18.897946	0.09172	4.1291623	26.117092	0.021598357	98.406538	0	0	1				7.34E-07	78.4781	8.6645218	0.002590936	0
4608823.8		4881	0	2.9574	-0.017	9.40E-06	2.9582172	0.06095397	0.007128325	3.65E-05	1.068607	0.006541	17.748887	0.08536	12.419258	24.344145	0.023591739	98.26403	0	0	1				7.40E-07	78.35127	8.751049	0.002409669	0
4609021.52		4881	0	2.958	-0.017	9.30E-06	2.9589639	0.059902103	0.007129219	3.28E-05	1.0698839	0.006541	17.752255	0.07663	10.407648	24.346832	0.022405393	98.354231	0	0	1				7.40E-07	73.03244	8.7554672	0.002409363	0
4609385.44		4881	0	2.979	-0.017	9.40E-06	2.9860798	0.061527714	0.006657366	2.88E-05	1.1017209	0.006535	16.679958	0.06737	15.667332	22.637278	0.019908946	98.558754	0	0	1				7.46E-07	73.04049	8.9166724	0.002229467	0
4609571.25		4881	0	2.9786	-0.017	9.30E-06	2.982074	0.059845519	0.006689125	3.16E-05	1.097332	0.006537	16.749885	0.07393	15.791481	22.634102	0.021389073	98.438089	0	0	1				7.50E-07	67.91183	8.8927654	0.002243112	0
4609920.22		4881	0	3.0008	-0.017	9.30E-06	3.0002487	0.061063447	0.00635247	2.54E-05	1.1188447	0.006522	15.983623	0.0595	7.4057641	21.262388	0.019968806	98.541724	0	0	1				7.61E-07	67.90231	9.0014925	0.002117314	0
4610096.91		4881	0	2.9999	-0.017	9.20E-06	2.9994906	0.059771615	0.006332594	2.55E-05	1.1182616	0.006523	15.936532	0.05961	11.03152	21.212637	0.019000853	98.613029	0	0	1				7.60E-07	63.78717	8.996944	0.002111223	0
4659630.28	Error: Warning: Current field is 10000.085 Oe;																												
4659630.48	Error: but addenda was obtained at 20000.107 Oe.																												
4660076.63	Error: Warning: Current field is 10000.085 Oe;																												
4660076.81	Error: but addenda was obtained at 20000.107 Oe.																												
4660599.97		4881	0	0.2292	10000.085	9.40E-06	0.22962324	0.005664113	8.46E-05	1.45E-06	0.005062514	0.0003652	0.20293262	0.003362	0.78913123	15.93725	0	100	0	0	1				1.27E-08	43.13933	0.052726833	0.000368255	0
4660760.61		4881	0	0.2301	10000.085	9.20E-06	0.2295331	0.005092542	9.77E-05	2.44E-06	0.005055952	0.0003586	0.2337343	0.0057	1.5072547	15.801391	0	100	0	0	1				1.48E-08	47.81175	0.052685445	0.000425759	0
4660902.48		4881	0	0.2302	10000.085	9.30E-06	0.22982931	0.005452644	8.79E-05	1.67E-06	0.005063841	0.0003666	0.21063679	0.003914	0.26717862	14.822566	0.007661633	97.751047	0	0	1				1.45E-08	47.40417	0.052821512	0.000382248	0
4661434.91		4881	0	0.2922	10000.085	9.30E-06	0.29068621	0.007061188	0.000107448	1.31E-06	0.007851165	0.000367	0.25927961	0.003054	0.40533115	13.678278	0.003500492	99.121657	0	0	1				1.91E-08	33.88792	0.084498475	0.000369636	0
4661562.5		4881	0	0.2918	10000.085	9.30E-06	0.29124406	0.007129918	0.000104055	1.27E-06	0.007867219	0.0003684	0.25135573	0.002973	0.61917934	11.204315	0.001277274	99.622761	0	0	1				2.25E-08	41.03483	0.084823101	0.000357277	0
4661669.95		4881	0	0.2923	10000.085	9.20E-06	0.29084579	0.006541016	0.000103964	1.31E-06	0.007849679	0.0003669	0.25112565	0.003073	0.34410185	11.000275	0.000501053	99.849379	0	0	1				2.29E-08	33.61295	0.084591272	0.000357454	0
4661973.36		4881	0	0.3542	10000.085	9.40E-06	0.35147736	0.006923291	0.0001824	3.00E-06	0.011232674	0.0008405	0.43804873	0.007018	0.71233447	14.286433	0.006278211	98.212331	0	0	1				3.12E-08	33.00082	0.12353634	0.000518952	0
4662103.28		4881	0	0.3542	10000.085	9.20E-06	0.35201858	0.00825195	0.000177154	2.10E-06	0.011263196	0.0008337	0.42580403	0.004917	1.1022526	14.254578	0.002561912	99.297666	0	0	1				3.01E-08	42.8593	0.12391708	0.000503252	0
4662233.17		4881	0	0.354	10000.085	9.40E-06	0.3517845	0.008119938	0.000185753	2.25E-06	0.011248848	0.0008369	0.44591197	0.005256	1.2657273	14.964703	0.000912954	99.751348	0	0	1				2.99E-08	42.76373	0.12375234	0.000528032	0
4662568.39		4881	0	0.416	10000.085	9.30E-06	0.41265573	0.008081029	0.000326492	3.02E-06	0.015760545	0.0006915	0.77975268	0.007025	1.2187858	19.408038	0	100	0	0	1				4.02E-08	44.89411	0.17028475	0.000791198	0
4662732.48		4881	0	0.4159	10000.085	9.20E-06	0.41339744	0.009376606	0.00033088	2.57E-06	0.015810058	0.0006932	0.79006991	0.006018	0.56092567	19.631203	0.002855503	99.253128	0	0	1				4.05E-08	58.22411	0.17089745	0.000800393	0
4662898.75		4881	0	0.4161	10000.085	9.30E-06	0.41347582	0.009336383	0.000331013	2.34E-06	0.015814899	0.0006933	0.79038428	0.005484	1.2180297	19.200931	0.000656926	99.825239	0	0	1				4.12E-08	58.89361	0.17096225	0.000800561	0
4663261.28		4881	0	0.479	10000.085	9.30E-06	0.47478077	0.009253002	0.000545574	3.90E-06	0.020939289	0.0009749	1.2975833	0.009126	0.8676798	25.575327	0.00525972	98.688552	0	0	1				5.14E-08	57.60279	0.22541678	0.001149108	0
4663467.97		4881	0	0.4792	10000.085	9.30E-06	0.47560242	0.010674313	0.00054842	3.33E-06	0.02100131	0.0009765	1.3043045	0.007802	1.1144309	24.984877	0.003750176	99.043985	0	0	1				5.27E-08	76.72598	0.22619766	0.001153106	0
4663671.31		4881	0	0.4794	10000.085	9.20E-06	0.47558366	0.010445271	0.000549831	4.04E-06	0.020996509	0.0009763	1.3076001	0.009462	1.4596134	24.429083	0.000473049	99.877297	0	0	1				5.36E-08	74.95463	0.22617982	0.001156118	0
4664079.52		4881	0	0.5412	10000.085	9.30E-06	0.53600008	0.010567226	0.000822219	6.07E-06	0.026720269	0.001202	1.9507117	0.01421	1.3516037	31.106349	0.004419604	98.937656	0	0	1				6.34E-08	73.28725	0.28729608	0.00153399	0
4664326.34		4881	0	0.541	10000.085	9.40E-06	0.53695139	0.011665539	0.000829602	5.07E-06	0.026792776	0.001208	1.9680612	0.01185	1.7421687	29.457239	0.001227067	99.688878	0	0	1				6.70E-08	93.31905	0.28831679	0.001545022	0
4664562.34		4881	0	0.5409	10000.085	9.40E-06	0.53664237	0.011445834	0.000828625	5.32E-06	0.026765662	0.001205	1.9657485	0.01245	1.3606434	29.739539	0.001050588	99.736314	0	0	1				6.63E-08	88.37172	0.28798503	0.001544092	0
4665011.92		4881	0	0.6032	10000.085	9.20E-06	0.59714765	0.011353609	0.001161823	8.68E-06	0.033215464	0.001956	2.7518815	0.02031	1.2976473	34.108343	0.001063632	99.737832	0	0	1				8.09E-08	89.21862	0.35658532	0.001945621	0
4665279.95		4881	0	0.6031	10000.085	9.30E-06	0.59783268	0.012250008	0.001174036	6.86E-06	0.033269343	0.001964	2.7805145	0.01604	1.3685347	34.655589	0.00094624	99.76853	0	0	1				8.04E-08	102.325	0.35740391	0.001963821	0
4665552.23		4881	0	0.6028	10000.085	9.40E-06	0.59773489	0.012437962	0.001162184	7.25E-06	0.033259386	0.001963	2.7527708	0.01697	1.1905578	34.589359	0.0013181	99.679766	0	0	1				7.98E-08	103.9668	0.357287	0.001944314	0
4666037.19		4881	0	0.6652	10000.085	9.40E-06	0.65928662	0.012710756	0.001522706	5.81E-06	0.039589076	0.001243	3.6027209	0.01359	1.2797241	39.09422	0.001732301	99.590675	0	0	1				9.25E-08	103.7681	0.43465885	0.002309627	0
4666340.31		4881	0	0.6654	10000.085	9.20E-06	0.65964881	0.013504008	0.001537313	5.06E-06	0.039617836	0.001239	3.6369304	0.01184	0.5314138	38.842627	0.001736472	99.583423	0	0	1				9.40E-08	117.2827	0.43513655	0.002330502	0
4666641.69		4881	0	0.6651	10000.085	9.30E-06	0.65953392	0.013432283	0.001529952	5.50E-06	0.039602862	0.001241	3.6196913	0.01286	0.72369644	38.462084	0.002129382	99.485856	0	0	1				9.46E-08	116.5279	0.43498499	0.002319748	0
4667157.17		4881	0	0.7272	10000.085	9.20E-06	0.72073891	0.013689288	0.001942812	7.08E-06	0.047269581	0.001518	4.5934495	0.01657	1.0312026	42.326205	0.001978313	99.539044	0	0	1				1.09E-07	115.3863	0.51946458	0.002695584	0
4667525.36		4881	0	0.7271	10000.085	9.30E-06	0.72098573	0.014512852	0.001944526	6.55E-06	0.047289313	0.001519	4.5974792	0.01532	1.7344229	42.240017	0.002225613	99.47983	0	0	1				1.09E-07	126.9786	0.51982042	0.002697038	0
4667892.94		4881	0	0.7271	10000.085	9.20E-06	0.7209767	0.014430565	0.001951361	6.96E-06	0.047288559	0.001519	4.6134742	0.0163	1.4962911	42.156502	0.001978774	99.53525	0	0	1				1.10E-07	126.7201	0.5198074	0.002706553	0
4668436.8		4881	0	0.789	10000.085	9.30E-06	0.78217215	0.014822536	0.002388411	8.54E-06	0.055066651	0.001906	5.6439472	0.01999	1.104317	45.073902	0.001723956	99.602611	0	0	1				1.26E-07	126.4695	0.61179328	0.003053561	0
4668781.98		4881	0	0.7889	10000.085	9.40E-06	0.78258902	0.015673868	0.002371526	8.39E-06	0.055115581	0.001907	5.6044875	0.01963	0.71055888	45.232014	0.002727325	99.37705	0	0	1				1.25E-07	135.2217	0.61244557	0.00303036	0
4669173.2		4881	0	0.7891	10000.085	9.30E-06	0.78247737	0.015658768	0.002372491	8.40E-06	0.055100256	0.001907	5.6067282	0.01967	0.93104148	45.27358	0.003359639	99.231733	0	0	1				1.25E-07	135.696	0.61227084	0.003032025	0
4669741.89		4881	0	0.8511	10000.085	9.30E-06	0.84373006	0.016054271	0.002839042	1.03E-05	0.0657065	0.002257	6.7090642	0.02416	1.1524214	47.514566	0.00232371	99.493238	0	0	1				1.42E-07	135.8207	0.71188041	0.00336487	0
4670103.69		4881	0	0.8512	10000.085	9.30E-06	0.84431376	0.016689363	0.002836179	1.07E-05	0.065859408	0.002263	6.7025177	0.02499	0.83160003	47.26143	0.001655315	99.638763	0	0	1				1.42E-07	142.5437	0.71286572	0.003359153	0
4670464.31		4881	0	0.851	10000.085	9.40E-06	0.84422309	0.016568401	0.002840801	9.86E-06	0.065829892	0.002262	6.7133048	0.02308	0.82916427	47.056892	0.00178628	99.607572	0	0	1				1.43E-07	141.7843	0.71271262	0.003364989	0
4671046.5		4881	0	0.9139	10000.085	9.40E-06	0.90651895	0.017132334	0.003295206	1.20E-05	0.080815333	0.00257	7.7915961	0.02805	1.0235369	49.155708	0.002009814	99.600137	0	0	1				1.59E-07	141.1707	0.8217766	0.00363501	0
4671468.64		4881	0	0.9139	10000.085	9.40E-06	0.90684364	0.017692008	0.00330625	1.20E-05	0.080844006	0.002565	7.8174694	0.02801	1.2332833	48.974347	0.00230299	99.538488	0	0	1				1.60E-07	147.4671	0.82236538	0.003645888	0
4671889.67		4881	0	0.914	10000.085	9.30E-06	0.9068117	0.017713316	0.003320785	1.17E-05	0.080843447	0.002566	7.8514811	0.02737	1.2299017	49.650855	0.002967685	99.410128	0	0	1				1.59E-07	146.923	0.82230746	0.003662045	0
4672481.48		4881	0	0.9762	10000.085	9.30E-06	0.96923247	0.018322715	0.003770126	8.17E-06	0.082964893	0.001467	8.9050598	0.01912	0.8864765	50.186393	0.001618593	99.649387	0	0	1				1.78E-07	148.9526	0.93941159	0.003889806	0
4672912.05		4881	0	0.9762	10000.085	9.20E-06	0.9694119	0.018769203	0.003781502	7.17E-06	0.082963385	0.001466	8.9316785	0.01678	1.0530463	50.158813	0.001268046	99.724551	0	0	1				1.79E-07	150.5592	0.93975943	0.003900821	0
4673295.52		4881	0	0.976	10000.085	9.30E-06	0.96932459	0.018739139	0.003788729	8.33E-06	0.082964039	0.001466	8.9485903	0.0195	0.71012345	50.304351	0.001943295	99.577707	0	0	1				1.79E-07	150.4764	0.93959017	0.003908628	0
4673901.47		4881	0	1.038	10000.085	9.30E-06	1.0308287	0.019501056	0.00421944	9.80E-06	0.081145957	0.00158	9.9546358	0.02294	1.5738346	51.282091	0.002100538	99.490877	0	0	1				1.95E-07	150.9131	1.0626079	0.00409325	0
4674290.33		4881	0	1.0381	10000.085	9.30E-06	1.0312002	0.019958045	0.004223928	9.40E-06	0.081153368	0.001581	9.9651454	0.02199	1.3969672	50.778834	0.001966633	99.518276	0	0	1				1.97E-07	153.8463	1.0633739	0.004096128	0
4674727.2		4881	0	1.038	10000.085	9.20E-06	1.0311145	0.019973779	0.004220011	9.12E-06	0.081151987	0.001581	9.9559768	0.02133	1.0987446	51.075629	0.001610015	99.608616	0	0	1				1.96E-07	152.3365	1.0631971	0.004092669	0
4675328.39		4881	0	1.1	10000.085	9.20E-06	1.0926238	0.019954218	0.004691211	1.17E-05	0.087065642	0.001877	11.064499	0.0274	1.8908643	50.707217	0	100	0	0	1				2.18E-07	153.2269	1.1938268	0.004293528	0
4675763.45		4881	0	1.0998	10000.085	9.20E-06	1.0930839	0.020989791	0.00467964	1.06E-05	0.087104828	0.001878	11.037461	0.02473	0.73202389	51.596845	0.00097191	99.75885	0	0	1				2.14E-07	152.1216	1.1948325	0.004281135	0
4676154.06		4881	0	1.0998	10000.085	9.30E-06	1.0931593	0.021157303	0.004670047	1.02E-05	0.087112624	0.001878	11.015023	0.02383	1.3410458	51.564407	0.001611194	99.600207	0	0	1				2.14E-07	154.7905	1.1949972	0.004272065	0
4676156.13	Error: Warning: Current field is 10000.085 Oe;																												
4676156.33	Error: but addenda was obtained at 20000.107 Oe.																												
4677476.11	Error: Warning: Current field is 10000.085 Oe;																												
4677476.38	Error: but addenda was obtained at 20000.107 Oe.																												
4689171.39		4881	0	1.2002	10000.085	9.30E-06	1.1923842	0.022644913	0.005356888	1.38E-05	0.09966292	0.001864	12.634781	0.0322	0.93216986	52.099439	0.001910001	99.529393	0	0	1				2.44E-07	103.1288	1.4217802	0.004492585	0
4689567.88		4881	0	1.2	10000.085	9.30E-06	1.1927216	0.023270091	0.005383119	1.53E-05	0.099725487	0.001864	12.696224	0.03586	1.0096755	53.36416	0.002561462	99.380349	0	0	1				2.39E-07	104.1989	1.4225848	0.004513307	0
4689972.67		4881	0	1.1995	10000.085	9.20E-06	1.1930346	0.023523722	0.005347134	1.28E-05	0.099756695	0.001864	12.612051	0.03	0.59880533	51.784462	0.00180224	99.554566	0	0	1				2.45E-07	106.7283	1.4233315	0.004481961	0
4690528.58		4881	0	1.245	10000.085	9.20E-06	1.2364701	0.02352204	0.005780337	2.34E-05	0.10665066	0.001982	13.632638	0.05486	2.235322	57.059108	0.005229808	98.805333	0	0	1				2.42E-07	103.5689	1.5288584	0.00467487	0
4690960.42		4881	0	1.2436	10000.085	9.30E-06	1.236934	0.025355479	0.005712122	1.49E-05	0.10668918	0.001983	13.473055	0.03486	0.69533996	53.428762	0.001351167	99.677082	0	0	1				2.53E-07	114.1182	1.5300057	0.004617969	0
4691418.31		4881	0	1.2437	10000.085	9.30E-06	1.2365685	0.024423574	0.005594045	1.80E-05	0.10662885	0.001981	13.196695	0.04204	0.17922933	51.679235	0.003173105	99.228138	0	0	1				2.57E-07	106.8575	1.5291017	0.004523846	0
4691972.11		4881	0	1.2869	10000.085	9.30E-06	1.2794603	0.024112752	0.005945561	1.67E-05	0.11414792	0.002185	14.02676	0.03917	1.0127613	52.044958	0.002205442	99.47231	0	0	1				2.71E-07	103.3585	1.6370185	0.004646929	0
4692366.05		4881	0	1.287	10000.085	9.30E-06	1.2796547	0.025171826	0.005855808	1.44E-05	0.11420183	0.002186	13.816794	0.03379	0.95017326	52.475117	0.002779125	99.34982	0	0	1				2.65E-07	104.0899	1.6375163	0.004576085	0
4692815.86		4881	0	1.2872	10000.085	9.30E-06	1.2798165	0.024963696	0.005934087	1.73E-05	0.11422477	0.002187	13.999989	0.04047	0.47662758	52.336878	0.002276488	99.459669	0	0	1				2.69E-07	104.9502	1.6379302	0.00463667	0
4693373.5		4881	0	1.331	10000.085	9.30E-06	1.3231856	0.025338791	0.006216368	1.86E-05	0.12199456	0.002464	14.668296	0.04353	0.31640714	53.006373	0.003039195	99.300083	0	0	1				2.79E-07	104.6738	1.7508201	0.004698032	0
4693773.88		4881	0	1.3309	10000.085	9.30E-06	1.3240278	0.025929641	0.006176515	1.51E-05	0.1221367	0.00247	14.575181	0.03535	0.79023372	51.196984	0.002156038	99.490695	0	0	1				2.86E-07	106.0127	1.7530495	0.004664944	0
4695082.09		4881	0	1.3309	10000.085	9.30E-06	1.3235211	0.025421322	0.006213021	1.74E-05	0.12205429	0.002466	14.660524	0.04069	1.5699908	51.851069	0.002031269	99.523302	0	0	1				2.84E-07	102.394	1.7517081	0.004694312	0
4695636.42		4881	0	1.374	10000.085	9.30E-06	1.3662336	0.025920785	0.006487117	1.70E-05	0.13004276	0.002748	15.309897	0.03972	0.80230557	51.904797	0.002297148	99.471804	0	0	1				2.97E-07	103.7021	1.8665942	0.004748176	0
4696028.33		4881	0	1.374	10000.085	9.40E-06	1.3666537	0.026535327	0.006477715	1.88E-05	0.13013563	0.00275	15.287988	0.044	1.2862651	51.839858	0.002507584	99.423653	0	0	1				2.97E-07	103.8096	1.8677422	0.004739836	0
4696422.78		4881	0	1.3739	10000.085	9.30E-06	1.3665852	0.026426945	0.006497421	1.80E-05	0.13011961	0.00275	15.334085	0.04221	0.70373635	51.772418	0.002468884	99.430076	0	0	1				2.98E-07	103.6797	1.8675551	0.004754494	0
4697471.88		4881	0	1.4181	10000.085	9.30E-06	1.4103639	0.026820233	0.006783754	1.84E-05	0.13888352	0.002653	16.012869	0.0431	1.1704575	51.533283	0.001790665	99.594274	0	0	1				3.12E-07	103.5448	1.9891264	0.004809932	0
4697864.11		4881	0	1.418	10000.085	9.40E-06	1.4105435	0.027268764	0.006775763	1.98E-05	0.13893277	0.002651	15.994219	0.04634	0.71772047	51.713264	0.002230858	99.496576	0	0	1				3.11E-07	103.0666	1.989633	0.004803654	0
4698255.47		4881	0	1.4178	10000.085	9.40E-06	1.4103106	0.027342491	0.006758412	1.94E-05	0.1388871	0.002653	15.95357	0.04529	0.9458599	51.657555	0.002831553	99.360894	0	0	1				3.11E-07	103.4265	1.988976	0.004792144	0
4698806.98		4881	0	1.4617	10000.085	9.30E-06	1.4543208	0.027553258	0.007059023	2.00E-05	0.14824668	0.002156	16.666359	0.04678	1.0907894	51.411524	0.001925019	99.573518	0	0	1				3.26E-07	103.3151	2.1150489	0.004853828	0
4699312		4881	0	1.4619	10000.085	9.20E-06	1.4544345	0.027998188	0.007058025	1.87E-05	0.14828657	0.002154	16.664065	0.04381	0.86581785	51.253268	0.00230746	99.486987	0	0	1				3.27E-07	102.823	2.1153796	0.004852763	0
4708457.59		4881	0	1.4623	10000.085	9.20E-06	1.4543525	0.02765423	0.007040793	1.96E-05	0.14826472	0.002155	16.623721	0.04576	0.91069093	51.506517	0.002659109	99.412614	0	0	1				3.25E-07	102.5065	2.1151412	0.004841188	0
4709006.92		4881	0	1.5052	10000.085	9.30E-06	1.4981297	0.02850871	0.00730801	1.30E-05	0.158211	0.001804	17.258954	0.03049	0.96068549	51.610588	0.002517894	99.460065	0	0	1				3.36E-07	103.013	2.2443925	0.004878089	0
4709346.94		4881	0	1.5051	10000.085	9.40E-06	1.4988196	0.028925759	0.007323816	1.35E-05	0.15837266	0.001802	17.296101	0.03159	0.48896983	50.854676	0.002341389	99.490029	0	0	1				3.42E-07	103.2212	2.2464602	0.004886389	0
4709732.45		4881	0	1.5046	10000.085	9.40E-06	1.4984002	0.028794002	0.007310076	1.24E-05	0.15828719	0.001803	17.263866	0.02902	1.1448939	51.073235	0.002336463	99.493964	0	0	1				3.40E-07	101.7094	2.245203	0.004878588	0
4710275.86		4881	0	1.549	10000.085	9.40E-06	1.5423107	0.029261836	0.007558411	1.33E-05	0.16890752	0.001791	17.855588	0.03116	1.0428919	51.029255	0.002554228	99.463037	0	0	1				3.52E-07	102.1465	2.3787222	0.004900706	0
4710663.13		4881	0	1.5491	10000.085	9.30E-06	1.5427323	0.029771382	0.007549421	1.17E-05	0.16901594	0.001792	17.83466	0.02745	1.3462524	50.464438	0.00206543	99.562144	0	0	1				3.55E-07	102.0585	2.380023	0.004893539	0
4711044.53		4881	0	1.5489	10000.085	9.30E-06	1.542708	0.029596761	0.007558407	1.20E-05	0.16901739	0.001792	17.85569	0.02812	0.47853521	50.71725	0.002417065	99.489202	0	0	1				3.54E-07	100.9289	2.3799479	0.004899441	0
4711590.5		4881	0	1.5919	10000.085	9.30E-06	1.5853303	0.030111469	0.007801874	1.59E-05	0.17995163	0.001949	18.436337	0.0371	0.66446845	51.000676	0.002787926	99.431324	0	0	1				3.64E-07	101.4345	2.5132722	0.004921292	0
4711926.47		4881	0	1.5921	10000.085	9.40E-06	1.5859374	0.030607883	0.007800591	1.35E-05	0.18010059	0.001951	18.433484	0.03146	0.12033326	50.054068	0.002237206	99.53595	0	0	1				3.70E-07	102.0014	2.5151975	0.0049186	0
4712307.66		4881	0	1.592	10000.085	9.30E-06	1.58574	0.030402083	0.00779682	1.27E-05	0.18006669	0.001951	18.424626	0.02972	0.8705613	50.537027	0.002308799	99.525767	0	0	1				3.66E-07	100.1081	2.5145712	0.004916834	0
4712851.17		4881	0	1.6357	10000.085	9.30E-06	1.6296316	0.030943259	0.008018646	1.38E-05	0.19192178	0.002242	18.955553	0.03238	1.2978955	50.288291	0.002724124	99.456671	0	0	1				3.79E-07	101.0741	2.6556991	0.004920527	0
4713233.55		4881	0	1.6363	10000.085	9.40E-06	1.6298403	0.031332032	0.00803444	1.30E-05	0.19199041	0.002244	18.99258	0.03036	0.66277832	49.893338	0.002164584	99.564621	0	0	1				3.82E-07	100.5766	2.6563794	0.004929587	0
4713611.28		4881	0	1.6362	10000.085	9.30E-06	1.629785	0.031248304	0.008038779	1.53E-05	0.19198135	0.002244	19.002725	0.03588	0.99330839	50.297653	0.002735718	99.453266	0	0	1				3.80E-07	99.78668	2.656199	0.004932417	0
4714150.72		4881	0	1.6791	10000.085	9.30E-06	1.6724848	0.031708075	0.00826324	1.40E-05	0.20406509	0.002717	19.540046	0.03264	1.0225736	49.985391	0.002575077	99.499097	0	0	1				3.93E-07	100.5953	2.7972055	0.004940696	0
4714532.91		4881	0	1.679	10000.085	9.40E-06	1.6728386	0.032169096	0.008259604	1.31E-05	0.20418015	0.002721	19.531653	0.03067	0.81498198	49.893817	0.002711919	99.471891	0	0	1				3.94E-07	99.97078	2.798389	0.004937478	0
4714912.58		4881	0	1.6792	10000.085	9.40E-06	1.672981	0.032205801	0.008251741	1.42E-05	0.20421943	0.002723	19.513294	0.03328	0.96844535	49.846672	0.002041343	99.603048	0	0	1				3.93E-07	99.78763	2.7988653	0.004932358	0
4715451.73		4881	0	1.7233	10000.085	9.30E-06	1.7163607	0.03245765	0.008481201	1.48E-05	0.21725505	0.003168	20.063265	0.03466	1.3557486	49.549507	0.00244413	99.537435	0	0	1				4.07E-07	99.69334	2.9458941	0.004941386	0
4715829.11		4881	0	1.7228	10000.085	9.30E-06	1.7166334	0.032928479	0.008493996	1.49E-05	0.21735825	0.003171	20.093309	0.03478	1.0434205	49.688101	0.002731937	99.48362	0	0	1				4.06E-07	99.09901	2.9468302	0.004948055	0
4716205.42		4881	0	1.7231	10000.085	9.40E-06	1.7169905	0.032968374	0.008491468	1.44E-05	0.21746523	0.003174	20.087501	0.03365	1.1495272	49.477181	0.002432125	99.538932	0	0	1				4.08E-07	99.3762	2.9480563	0.004945553	0
4716741.89		4881	0	1.7671	10000.085	9.30E-06	1.7605558	0.033240135	0.008716932	1.48E-05	0.23142882	0.00335	20.62905	0.03456	1.1270793	49.337951	0.002365674	99.565949	0	0	1				4.20E-07	98.95436	3.0995566	0.004951239	0
4717114.31		4881	0	1.7673	10000.085	9.30E-06	1.7607054	0.033758237	0.008735791	1.62E-05	0.23151055	0.00335	20.673262	0.03789	0.73245878	49.466003	0.00274974	99.495556	0	0	1				4.20E-07	98.6759	3.1000834	0.004961529	0
4717489.98		4881	0	1.7672	10000.085	9.40E-06	1.7608785	0.033861401	0.008722743	1.64E-05	0.23155427	0.00335	20.642772	0.03829	0.94562914	49.302372	0.002296671	99.578304	0	0	1				4.20E-07	98.93201	3.100693	0.004953631	0
4718022.41		4881	0	1.81	10000.085	9.20E-06	1.8033417	0.033954523	0.009003379	1.63E-05	0.24593348	0.003333	21.313841	0.03815	0.47987245	49.318115	0.00202356	99.639012	0	0	1				4.34E-07	98.60474	3.2520414	0.004992609	0
4718395.8		4881	0	1.8097	10000.085	9.30E-06	1.8038422	0.034685426	0.00893711	1.62E-05	0.2461234	0.003333	21.158961	0.038	1.0035425	48.800914	0.002461516	99.559418	0	0	1				4.35E-07	98.63623	3.2538466	0.004954486	0
4718766.58		4881	0	1.8098	10000.085	9.30E-06	1.8035341	0.034574902	0.008948426	1.56E-05	0.24603887	0.003333	21.185355	0.03659	0.96187396	49.376955	0.002689889	99.523245	0	0	1				4.31E-07	97.60183	3.2527354	0.004961606	0
4719300.3		4881	0	1.8539	10000.085	9.40E-06	1.8475678	0.034912117	0.00921561	1.76E-05	0.26193825	0.003333	21.826467	0.04118	1.5223788	48.835077	0.002236491	99.612323	0	0	1				4.49E-07	98.75391	3.4135069	0.004987969	0
4719622.44		4881	0	1.8539	10000.085	9.30E-06	1.8479442	0.035391843	0.009178072	1.96E-05	0.26212646	0.003334	21.738815	0.04593	0.47085888	48.773877	0.003016724	99.478198	0	0	1				4.48E-07	97.67015	3.4148977	0.004966639	0
4719993.38		4881	0	1.8535	10000.085	9.30E-06	1.847799	0.035267329	0.009218558	1.75E-05	0.26205955	0.003333	21.833486	0.04098	0.71160739	48.616039	0.002217289	99.61398	0	0	1				4.51E-07	97.54775	3.414361	0.00498894	0
4720519.19		4881	0	1.8968	10000.085	9.40E-06	1.890631	0.035390408	0.009513108	1.85E-05	0.27873219	0.003506	22.539404	0.04329	1.1347489	49.054732	0.002415719	99.595238	0	0	1				4.61E-07	97.23208	3.5744856	0.00503171	0
4720893.38		4881	0	1.8971	10000.085	9.20E-06	1.8910169	0.036351308	0.009488288	1.78E-05	0.27891799	0.003508	22.481512	0.04167	0.93377041	49.210601	0.002975871	99.504117	0	0	1				4.59E-07	98.10946	3.5759449	0.005017559	0
4721267.61		4881	0	1.897	10000.085	9.40E-06	1.8909431	0.036343485	0.009490766	1.82E-05	0.27888232	0.003508	22.487274	0.04261	1.2456304	48.98446	0.0031097	99.479102	0	0	1				4.61E-07	98.4212	3.5756657	0.005019065	0
4721800.19		4881	0	1.9412	10000.085	9.20E-06	1.9345472	0.036455513	0.009782183	1.94E-05	0.29692369	0.00379	23.187232	0.04536	1.2946104	49.243966	0.003007224	99.514689	0	0	1				4.73E-07	97.96892	3.7424727	0.005056575	0
4722173.47		4881	0	1.9412	10000.085	9.30E-06	1.9351387	0.037197109	0.009802193	2.01E-05	0.2972107	0.003794	23.234343	0.04695	1.2329348	49.296829	0.003222908	99.47972	0	0	1				4.74E-07	98.48793	3.7447617	0.00506537	0
4722549.48		4881	0	1.9412	10000.085	9.20E-06	1.9350504	0.037216907	0.009791864	2.03E-05	0.29716543	0.003794	23.210127	0.04758	0.61444038	49.077129	0.00288632	99.532618	0	0	1				4.75E-07	98.59366	3.7444201	0.005060263	0
4723078.5		4881	0	1.9847	10000.085	9.20E-06	1.9785776	0.037452327	0.010003596	1.84E-05	0.31634005	0.004114	23.724755	0.04316	1.0816578	48.768563	0.002791098	99.563169	0	0	1				4.89E-07	98.15426	3.9147695	0.005055953	0
4723450.58		4881	0	1.9851	10000.085	9.30E-06	1.9788988	0.038113791	0.009996945	1.85E-05	0.31654787	0.004118	23.709399	0.04328	1.0805559	49.090836	0.003367901	99.476597	0	0	1				4.85E-07	97.53713	3.9160405	0.005051772	0
4723824.83		4881	0	1.9851	10000.085	9.40E-06	1.978769	0.038231981	0.01000857	1.95E-05	0.31646936	0.004116	23.736523	0.04564	0.51296101	48.955277	0.002899586	99.547816	0	0	1				4.87E-07	98.18167	3.9155267	0.005057978	0
4724354.22		4881	0	2.0282	10000.085	9.20E-06	2.0216	0.038576232	0.010184838	2.00E-05	0.33661466	0.004444	24.169136	0.04674	0.93022224	48.751266	0.003369187	99.494363	0	0	1				4.98E-07	97.91055	4.0868666	0.005038009	0
4724724.23		4881	0	2.0282	10000.085	9.30E-06	2.0219068	0.039187799	0.010169486	1.84E-05	0.33680309	0.004448	24.133401	0.04305	0.80891227	48.482029	0.003338118	99.49727	0	0	1				5.00E-07	97.50253	4.0881072	0.005029651	0
4725094.13		4881	0	2.0278	10000.085	9.40E-06	2.0218337	0.038954406	0.010194152	1.81E-05	0.33674878	0.004447	24.191064	0.04223	0.63506955	48.342924	0.002950335	99.55351	0	0	1				5.03E-07	96.96406	4.0878115	0.005042033	0
4725623.58		4881	0	2.0719	10000.085	9.30E-06	2.0655134	0.039320195	0.010369443	2.01E-05	0.35869	0.004908	24.623186	0.04693	1.1237294	48.118174	0.003578465	99.479379	0	0	1				5.14E-07	96.68585	4.2663456	0.005020274	0
4725991.41		4881	0	2.0723	10000.085	9.20E-06	2.0657806	0.039816204	0.010387446	2.00E-05	0.35886357	0.004911	24.665487	0.04672	0.78972898	47.953814	0.002788017	99.592932	0	0	1				5.16E-07	96.23635	4.2674496	0.005028339	0
4726358.48		4881	0	2.0722	10000.085	9.40E-06	2.0659222	0.039831239	0.010371621	2.06E-05	0.35894189	0.004913	24.628535	0.04827	0.67878316	48.013964	0.003133801	99.543578	0	0	1				5.15E-07	95.90763	4.2680346	0.005020335	0
4726882.2		4881	0	2.1152	10000.085	9.40E-06	2.1084951	0.040175397	0.01054979	2.11E-05	0.38140131	0.0053	25.067911	0.0493	1.3886743	47.653138	0.003561131	99.49888	0	0	1				5.29E-07	96.02793	4.4457517	0.005003469	0
4727245.58		4881	0	2.1149	10000.085	9.30E-06	2.1088608	0.040641825	0.010547698	2.08E-05	0.38162341	0.005303	25.063236	0.04875	0.85297443	47.261598	0.002687299	99.619434	0	0	1				5.32E-07	95.30628	4.447294	0.005001609	0
4727605.97		4881	0	2.1151	10000.085	9.30E-06	2.1086646	0.040508893	0.010542738	1.97E-05	0.38154604	0.005302	25.051553	0.0461	0.71646731	47.477967	0.003135184	99.557888	0	0	1				5.30E-07	94.5232	4.4464664	0.004999723	0
4728125		4881	0	2.1587	10000.085	9.30E-06	2.1524806	0.041130398	0.010674971	2.12E-05	0.40542791	0.005393	25.38486	0.04954	0.91159886	47.219967	0.003746298	99.492777	0	0	1				5.40E-07	94.95593	4.6331728	0.004959381	0
4728485.3		4881	0	2.159	10000.085	9.30E-06	2.1528216	0.04174177	0.010650398	2.03E-05	0.40566602	0.005391	25.327598	0.04738	0.83199896	47.057001	0.003679243	99.501569	0	0	1				5.41E-07	94.43993	4.6346407	0.004947181	0
4728845.09		4881	0	2.159	10000.085	9.30E-06	2.1527402	0.041682348	0.010640449	1.97E-05	0.40561962	0.005392	25.304269	0.04598	0.69801079	47.032137	0.004154223	99.437031	0	0	1				5.41E-07	94.114	4.6342905	0.004942746	0
4729361.88		4881	0	2.2029	10000.085	9.30E-06	2.2000595	0.042380064	0.010654634	1.15E-05	0.43208858	0.004877	25.363932	0.0268	1.0759742	46.05997	0.004217028	99.450432	0	0	1				5.54E-07	94.06427	4.8402617	0.004842885	0
4729713.39		4881	0	2.203	10000.085	9.40E-06	2.1980219	0.042522548	0.010671782	1.13E-05	0.43097512	0.004909	25.402946	0.02639	0.285933	45.832448	0.003431473	99.549182	0	0	1				5.57E-07	92.11994	4.8313004	0.004855176	0
4730063.38		4881	0	2.203	10000.085	9.30E-06	2.1998892	0.042465089	0.010623704	1.19E-05	0.43203497	0.004878	25.291502	0.02781	0.40024531	45.811568	0.003982436	99.479735	0	0	1				5.55E-07	91.6649	4.8395126	0.0048292	0
4730567.66		4881	0	2.2461	10000.085	9.20E-06	2.2429825	0.043174087	0.010659818	1.18E-05	0.45694406	0.004056	25.400918	0.02764	0.73360541	44.968381	0.003896865	99.507199	0	0	1				5.68E-07	91.62314	5.0309707	0.004752519	0
4730912.11		4881	0	2.2463	10000.085	9.30E-06	2.2415732	0.043372672	0.01067414	1.21E-05	0.45617816	0.004082	25.433665	0.02838	0.7413147	44.85137	0.004073801	99.48185	0	0	1				5.70E-07	89.93676	5.0246506	0.004761897	0
4731256.97		4881	0	2.2457	10000.085	9.30E-06	2.240911	0.043327746	0.010672689	1.28E-05	0.45579076	0.004096	25.429883	0.02983	0.4689541	44.92507	0.004132634	99.474834	0	0	1				5.69E-07	89.70274	5.0216821	0.004762656	0
4731757.45		4881	0	2.2903	10000.085	9.40E-06	2.2848433	0.044726499	0.010398362	1.13E-05	0.48208231	0.003283	24.814249	0.02635	1.679402	42.932723	0.004508679	99.445898	0	0	1				5.81E-07	89.85014	5.2205087	0.004551018	0
4732044.25		4881	0	2.2898	10000.085	9.40E-06	2.2865354	0.044248627	0.010389717	1.15E-05	0.48319541	0.003255	24.795134	0.02683	0.13824268	42.707333	0.003646391	99.551302	0	0	1				5.83E-07	85.86545	5.2282442	0.004543869	0
4732372.88		4881	0	2.29	10000.085	9.30E-06	2.283982	0.044099344	0.010388531	1.17E-05	0.4816371	0.003294	24.7908	0.02747	0.3780627	42.857183	0.004302158	99.470479	0	0	1				5.81E-07	85.41467	5.2165737	0.00454843	0
4732859.92		4881	0	2.3332	10000.085	9.40E-06	2.3322902	0.045654449	0.010121983	1.40E-05	0.51184722	0.002834	24.197287	0.03267	1.4774782	41.218733	0.004942071	99.417829	0	0	1				5.90E-07	85.71437	5.4395777	0.004339933	0
4733135.78		4881	0	2.333	10000.085	9.30E-06	2.3286871	0.045139232	0.010148206	1.51E-05	0.50960889	0.002848	24.25641	0.0354	0.19911228	40.990308	0.004497126	99.463949	0	0	1				5.95E-07	82.43747	5.4227838	0.004357909	0
4733450.13		4881	0	2.3329	10000.085	9.30E-06	2.3277877	0.045121124	0.010126787	1.46E-05	0.50906561	0.002852	24.205747	0.03414	0.57548044	40.93217	0.004219001	99.497045	0	0	1				5.94E-07	81.98062	5.4185957	0.004350391	0
4733922.19		4881	0	2.3769	10000.085	9.30E-06	2.3739118	0.046803817	0.009764237	3.15E-05	0.53879777	0.002801	23.387112	0.07361	9.4066777	39.320839	0.006525005	99.257709	0	0	1				5.99E-07	81.86434	5.6354571	0.004113142	0
4734225.05		4881	0	2.3773	10000.085	9.40E-06	2.3701809	0.04623209	0.009769378	3.13E-05	0.53641078	0.002795	23.396755	0.07313	9.8559707	39.025878	0.006073403	99.300829	0	0	1				6.04E-07	78.64168	5.6177575	0.004121786	0
4734527.75		4881	0	2.3771	10000.085	9.30E-06	2.373093	0.046275588	0.009749701	2.92E-05	0.53833263	0.002799	23.352633	0.06821	3.8537565	39.184405	0.006435113	99.26588	0	0	1				6.00E-07	78.05176	5.6315705	0.004108436	0
4734985.23		4881	0	2.4213	10000.085	9.30E-06	2.4164684	0.054973073	0.007512902	4.97E-05	0.56715421	0.002954	18.147346	0.1162	40.958273	31.548031	0.014522252	98.458687	0	0	1				5.84E-07	78.36881	5.8393193	0.003109042	0
4735202.39		4881	0	2.4208	10000.085	9.40E-06	2.4160726	0.048701188	0.007606885	4.98E-05	0.56718708	0.002955	18.367299	0.1165	8.2865219	31.05823	0.008147951	99.116508	0	0	1				5.96E-07	63.09606	5.8374066	0.003148451	0
4735416.45		4881	0	2.4207	10000.085	9.40E-06	2.4154857	0.048307943	0.007615577	5.03E-05	0.56679842	0.002952	18.387248	0.1177	5.2952165	30.961141	0.007408328	99.193354	0	0	1				5.98E-07	62.11646	5.834571	0.003152814	0
4735815.66		4881	0	2.4641	10000.085	9.40E-06	2.4591123	0.05235013	0.006645404	1.70E-05	0.59699516	0.003181	16.147241	0.03981	3.8749379	26.210171	0.007476673	99.193252	0	0	1				6.21E-07	61.92228	6.0472331	0.002702359	0
4735999.84		4881	0	2.464	10000.085	9.20E-06	2.4582239	0.048177729	0.006651479	1.80E-05	0.59663241	0.003178	16.161093	0.04208	1.0308567	26.063009	0.005865078	99.363611	0	0	1				6.24E-07	52.42034	6.0428647	0.002705807	0
4736183.88		4881	0	2.4642	10000.085	9.40E-06	2.4585642	0.047954744	0.006656041	1.71E-05	0.59686246	0.00318	16.171998	0.04005	2.39235	26.083549	0.005785036	99.372664	0	0	1				6.24E-07	52.12602	6.044538	0.002707288	0
4736550.98		4881	0	2.5082	10000.085	9.20E-06	2.502714	0.050468541	0.006240033	1.16E-05	0.62941195	0.003367	15.231088	0.02715	2.1102717	24.088623	0.006429255	99.322436	0	0	1				6.36E-07	52.1671	6.2635773	0.002493306	0
4736723.27		4881	0	2.5083	10000.085	9.30E-06	2.5040059	0.048684277	0.006242493	1.19E-05	0.63052892	0.003371	15.237962	0.02784	0.4500417	23.92076	0.004695837	99.503033	0	0	1				6.40E-07	48.17725	6.2700457	0.002493002	0
4736895.44		4881	0	2.508	10000.085	9.30E-06	2.5037029	0.048528266	0.006232757	1.25E-05	0.6302983	0.00337	15.214949	0.02932	0.65525964	23.978042	0.005101016	99.461846	0	0	1				6.38E-07	47.84152	6.268528	0.002489416	0
4737247.39		4881	0	2.5507	10000.085	9.30E-06	2.5454005	0.050507777	0.005991192	1.03E-05	0.66259547	0.003503	14.681985	0.02413	1.1034309	22.723357	0.005541273	99.431447	0	0	1				6.49E-07	47.95608	6.4790636	0.002353733	0
4737410.88		4881	0	2.5512	10000.085	9.40E-06	2.5445314	0.049426586	0.006017133	1.03E-05	0.66206719	0.003501	14.742158	0.02407	0.43600876	22.681475	0.004684837	99.516524	0	0	1				6.53E-07	45.44671	6.4746403	0.002364731	0
4737574.73		4881	0	2.5515	10000.085	9.40E-06	2.5437698	0.049321757	0.00599998	1.12E-05	0.66146279	0.003498	14.701416	0.02616	0.5085737	22.680904	0.005392839	99.444094	0	0	1				6.51E-07	45.36295	6.4707647	0.002358696	0
4737915.22		4881	0	2.5948	10000.085	9.30E-06	2.5865643	0.050837957	0.005837978	9.06E-06	0.6959797	0.003645	14.356849	0.02121	1.1926975	21.654984	0.005224367	99.474738	0	0	1				6.66E-07	45.36181	6.6903151	0.00225704	0
4738072.94		4881	0	2.595	10000.085	9.20E-06	2.5898094	0.050214989	0.005828144	1.03E-05	0.6987645	0.003658	14.336622	0.02402	0.83891652	21.489967	0.003930145	99.604283	0	0	1				6.70E-07	43.30997	6.7071126	0.002250414	0
4738230.09		4881	0	2.5951	10000.085	9.30E-06	2.5899041	0.050089658	0.005808872	1.02E-05	0.69889061	0.003659	14.29165	0.02384	0.34896579	21.674993	0.006496639	99.352164	0	0	1				6.63E-07	42.97993	6.7076031	0.002242891	0
4738564.84		4881	0	2.6381	10000.085	9.20E-06	2.6312432	0.051446075	0.005693562	9.99E-06	0.73393341	0.003841	14.056869	0.02337	1.1297418	20.876084	0.006129153	99.403867	0	0	1				6.77E-07	43.34999	6.9234406	0.00216383	0
4738718.27		4881	0	2.6376	10000.085	9.20E-06	2.6341368	0.051154744	0.005689245	8.88E-06	0.73653511	0.003857	14.049369	0.02078	0.55354722	20.921588	0.005404382	99.477829	0	0	1				6.75E-07	41.75217	6.9386769	0.002159814	0
4738872.77		4881	0	2.6378	10000.085	9.20E-06	2.632487	0.051349368	0.005679236	9.58E-06	0.73509352	0.003848	14.024505	0.0224	0.61947766	20.831558	0.00505115	99.509888	0	0	1				6.76E-07	41.84318	6.9299879	0.002157365	0
4739202.56		4881	0	2.6816	10000.085	9.20E-06	2.6722667	0.052231521	0.005598381	9.49E-06	0.77045164	0.004084	13.870663	0.0222	0.38847271	20.130705	0.005485015	99.478479	0	0	1				6.92E-07	41.66312	7.1410091	0.002094993	0
4739351.8		4881	0	2.6817	10000.085	9.30E-06	2.6730218	0.051851102	0.005592689	9.26E-06	0.77122384	0.00409	13.858117	0.02168	0.43773158	20.132481	0.005573152	99.471065	0	0	1				6.92E-07	40.26141	7.1450453	0.002092272	0
4739500.72		4881	0	2.6817	10000.085	9.40E-06	2.6756355	0.051830804	0.005587708	9.46E-06	0.77362845	0.004109	13.848865	0.02213	0.59446175	20.204432	0.005675591	99.465145	0	0	1				6.89E-07	40.26496	7.1590253	0.002088367	0
4739828.63		4881	0	2.7261	10000.085	9.30E-06	2.7194785	0.053131846	0.005514866	1.05E-05	0.8148078	0.004499	13.719594	0.02458	0.78497068	19.641102	0.005809071	99.46838	0	0	1				7.02E-07	40.40886	7.3955632	0.002027913	0
4739974.17		4881	0	2.7258	10000.085	9.40E-06	2.72129	0.052688809	0.005521674	9.13E-06	0.8166075	0.004519	13.737325	0.02135	0.40396862	19.558128	0.004690421	99.56964	0	0	1				7.05E-07	39.2822	7.4054194	0.002029065	0
4740118.28		4881	0	2.7259	10000.085	9.40E-06	2.7199908	0.05248678	0.005514527	9.45E-06	0.81546835	0.004506	13.719461	0.0221	0.39677278	19.538189	0.00542392	99.501525	0	0	1				7.05E-07	39.11626	7.3983499	0.002027406	0
4740439.66		4881	0	2.7683	10000.085	9.20E-06	2.7638771	0.053607185	0.00543744	9.48E-06	0.85868036	0.005031	13.582291	0.02219	0.80243349	18.961759	0.005395909	99.517744	0	0	1				7.19E-07	39.07638	7.6390165	0.001967324	0
4740579.28		4881	0	2.7692	10000.085	9.30E-06	2.7636348	0.053160708	0.005447033	1.08E-05	0.85853926	0.005029	13.604596	0.02515	0.41740289	18.978026	0.005537013	99.504674	0	0	1				7.20E-07	37.92352	7.6376771	0.001970967	0
4740721.09		4881	0	2.7691	10000.085	9.40E-06	2.7627293	0.053291838	0.005423993	9.82E-06	0.85761991	0.005017	13.549763	0.02298	0.33878903	18.902976	0.005435636	99.513194	0	0	1				7.20E-07	37.95605	7.6326731	0.001963273	0
4744058.23		4881	0	2.8133	10000.085	9.40E-06	2.8059967	0.054242096	0.005368786	9.70E-06	0.90195195	0.005566	13.46491	0.0227	0.8467564	18.406275	0.004490463	99.60851	0	0	1				7.34E-07	37.80595	7.8736173	0.001913326	0
4744195.55		4881	0	2.8125	10000.085	9.40E-06	2.8054855	0.053990525	0.005397655	1.05E-05	0.90160159	0.005562	13.532115	0.02463	0.78012334	18.547315	0.005833003	99.492367	0	0	1				7.33E-07	36.81255	7.8707487	0.001923965	0
4744336.63		4881	0	2.8132	10000.085	9.20E-06	2.8103944	0.054432632	0.005363488	1.05E-05	0.90658557	0.005621	13.457147	0.02456	0.59129372	18.404627	0.00534743	99.535968	0	0	1				7.34E-07	37.09463	7.8983165	0.001908447	0
4744648.13		4881	0	2.8564	10000.085	9.20E-06	2.8512872	0.054884821	0.005318351	1.08E-05	0.95025804	0.006074	13.3952	0.02526	0.79482728	17.99138	0.005482586	99.536068	0	0	1				7.48E-07	36.80925	8.129839	0.001865246	0
4744783.23		4881	0	2.8566	10000.085	9.20E-06	2.8502084	0.054614153	0.005330106	1.07E-05	0.94923348	0.006065	13.421682	0.02505	0.86232454	18.020805	0.005304857	99.550621	0	0	1				7.48E-07	35.98276	8.123688	0.001870076	0
4744918.25		4881	0	2.8555	10000.085	9.30E-06	2.853459	0.054928762	0.005313898	1.14E-05	0.95282465	0.006097	13.387345	0.02657	0.72015555	18.11666	0.005800359	99.513972	0	0	1				7.42E-07	36.04161	8.1422281	0.001862265	0
4745228.39		4881	0	2.9	10000.085	9.40E-06	2.8947845	0.05599946	0.005271546	1.07E-05	0.99810169	0.006394	13.33352	0.02497	0.95171922	17.710529	0.005805138	99.525085	0	0	1				7.56E-07	36.23332	8.3797774	0.00182105	0
4745362		4881	0	2.9003	10000.085	9.40E-06	2.8932606	0.055512068	0.005295872	1.17E-05	0.99647212	0.006387	13.388813	0.02747	0.66375639	17.605336	0.004816072	99.601753	0	0	1				7.63E-07	35.42106	8.370957	0.001830417	0
4745495.11		4881	0	2.9009	10000.085	9.30E-06	2.8957566	0.05552423	0.005275462	1.05E-05	0.99921787	0.006399	13.343799	0.02454	0.58052718	17.528706	0.003198281	99.73612	0	0	1				7.63E-07	35.21067	8.385406	0.001821791	0
4745497.58	Error: Warning: Current field is 10000.085 Oe;																												
4745498.05	Error: but addenda was obtained at 20000.107 Oe.																												
4745933.42		4881	0	2.9998	10000.085	9.20E-06	2.9949001	0.058186526	0.005177768	9.34E-06	1.1124469	0.006527	13.228425	0.02186	1.1517997	16.851823	0.005708323	99.558893	0	0	1				7.88E-07	51.55745	8.9694269	0.001728862	0
4746079.05		4881	0	3.0012	10000.085	9.30E-06	2.9964528	0.057656378	0.005160173	9.15E-06	1.1144391	0.006526	13.189243	0.02141	0.46192703	16.883059	0.006844936	99.474015	0	0	1				7.85E-07	50.55547	8.9787292	0.001722094	0
4746225.13		4881	0	3.0005	10000.085	9.40E-06	2.9940316	0.057403558	0.005166402	9.36E-06	1.1115097	0.006528	13.200891	0.0219	0.86548324	16.889312	0.007984769	99.384312	0	0	1				7.86E-07	50.64918	8.9642255	0.001725567	0
4746548.95		4881	0	3.1144	10000.085	9.30E-06	3.1104883	0.060666819	0.005038531	8.75E-06	1.2557065	0.006498	13.045869	0.02046	0.66512997	16.069087	0.009178091	99.340637	0	0	1				8.16E-07	50.66794	9.6751375	0.001619852	0
4746688.28		4881	0	3.1137	10000.085	9.30E-06	3.1076692	0.059530039	0.005076531	9.10E-06	1.2523546	0.006493	13.131438	0.02129	0.81872263	16.069224	0.007156152	99.482109	0	0	1				8.21E-07	48.20726	9.6576079	0.00163355	0
4746828.72		4881	0	3.1145	10000.085	9.20E-06	3.1067862	0.059576234	0.005087959	9.11E-06	1.2512637	0.006491	13.157088	0.02131	1.1140172	16.123993	0.006644054	99.519705	0	0	1				8.19E-07	48.20767	9.6521208	0.001637692	0
4747146.98		4881	0	3.2293	10000.085	9.30E-06	3.2212175	0.062522874	0.004984672	9.47E-06	1.397528	0.006737	13.061661	0.02215	0.952108	15.479189	0.008152997	99.446917	0	0	1				8.48E-07	48.37198	10.376242	0.00154745	0
4747283.17		4881	0	3.229	10000.085	9.30E-06	3.2166074	0.061742966	0.005004832	9.84E-06	1.3917209	0.006725	13.103027	0.02302	1.2170296	15.401351	0.006186714	99.575778	0	0	1				8.54E-07	46.43757	10.346563	0.001555935	0
4747419		4881	0	3.2293	10000.085	9.30E-06	3.2213312	0.061798129	0.004984087	1.00E-05	1.3979136	0.006738	13.060678	0.02339	0.91318016	15.418064	0.005345645	99.636451	0	0	1				8.50E-07	46.20405	10.376975	0.001547214	0
4747732.58		4881	0	3.3429	10000.085	9.40E-06	3.3296487	0.064669506	0.004901425	9.05E-06	1.5466948	0.007195	13.016029	0.02117	0.84284365	14.910011	0.006806472	99.562968	0	0	1				8.76E-07	46.25419	11.08656	0.001472055	0
4747865.66		4881	0	3.3434	10000.085	9.30E-06	3.3290329	0.063793209	0.004904103	9.39E-06	1.545847	0.007191	13.021448	0.02197	0.64750315	14.795912	0.005076347	99.671467	0	0	1				8.82E-07	44.73003	11.08246	0.001473131	0
4747995.67		4881	0	3.3423	10000.085	9.40E-06	3.329837	0.063640603	0.004873861	9.67E-06	1.5472508	0.007197	12.952085	0.02264	0.8059203	14.801458	0.009538343	99.385278	0	0	1				8.79E-07	44.38774	11.087815	0.001463694	0
4748304.59		4881	0	3.4575	10000.085	9.30E-06	3.4431137	0.066882779	0.004775612	9.43E-06	1.7209187	0.008393	12.89585	0.02207	0.81339164	14.396746	0.011050104	99.334022	0	0	1				9.00E-07	44.40437	11.855032	0.001387004	0
4748432.81		4881	0	3.4569	10000.085	9.30E-06	3.4412628	0.066334516	0.00480004	1.01E-05	1.7180729	0.00837	12.950167	0.02353	1.2174056	14.34844	0.007055915	99.571708	0	0	1				9.05E-07	43.19024	11.84229	0.001394848	0
4748560.53		4881	0	3.4566	10000.085	9.30E-06	3.4472527	0.066156114	0.004784468	1.07E-05	1.7277153	0.008448	12.923371	0.02509	1.0293492	14.387058	0.009511778	99.427502	0	0	1				9.02E-07	43.04532	11.883551	0.001387908	0
4748862.98		4881	0	3.5711	10000.085	9.30E-06	3.5517717	0.068788694	0.00469282	1.01E-05	1.9005111	0.009522	12.881709	0.02357	1.1857095	13.83645	0.009617941	99.445906	0	0	1				9.35E-07	43.16117	12.615082	0.001321262	0
4748988.13		4881	0	3.5706	10000.085	9.30E-06	3.5529656	0.068090829	0.004728415	1.02E-05	1.902761	0.009529	12.967251	0.02387	0.82547265	13.895186	0.007508086	99.567579	0	0	1				9.36E-07	41.50935	12.623565	0.001330836	0
4749114.77		4881	0	3.5709	10000.085	9.40E-06	3.555352	0.066231839	0.004727454	1.33E-05	1.9079757	0.009544	12.970218	0.02958	0.69427601	13.75788	0	100	0	0	1				9.43E-07	41.68556	12.640528	0.001329673	0
